%OpenBCI Raw EEG Data
%
%Sample Rate = 250.0 Hz
%First Column = SampleIndex
%Other Columns = EEG data in microvolts followed by Accel Data (in G) interleaved with Aux Data
0, -93.45, 178586.44, -51738.50, -55234.46, -46818.25, 18404.74, -10920.70, 8852.14, -0.15, 0.14, 0.47
1, -1162.98, 184675.94, -52679.44, -59951.54, -46358.77, 19968.60, -10975.06, 8756.81, 0.00, 0.00, 0.00
2, 4158.18, 137748.67, -49851.79, -48434.57, -26284.96, 23373.13, -12757.03, 15032.35, -0.30, 0.28, 0.96
3, 5401.72, 129317.55, -48750.70, -43242.15, -26404.47, 21950.11, -12434.77, 15405.83, 0.00, 0.00, 0.00
4, 817.58, 170934.00, -51164.30, -53000.66, -44028.15, 18699.27, -11115.70, 9803.39, 0.00, 0.00, 0.00
5, -1555.50, 187500.00, -52774.01, -60554.85, -48825.44, 19309.98, -10646.47, 8101.08, 0.00, 0.00, 0.00
6, 3221.27, 145765.95, -50375.38, -50775.99, -29274.41, 23059.69, -12492.21, 14092.73, 0.00, 0.00, 0.00
7, 5769.52, 125471.20, -48664.42, -42886.54, -24419.59, 22514.06, -12606.74, 16010.35, -0.30, 0.27, 0.95
8, 1784.25, 162837.14, -50643.71, -50760.45, -40852.55, 19124.44, -11402.94, 10854.28, 0.00, 0.00, 0.00
9, -1659.26, 187500.00, -52760.06, -60529.48, -50318.11, 18765.72, -10491.71, 7726.60, 0.00, 0.00, 0.00
10, 2167.87, 154997.30, -50953.97, -53298.94, -32986.55, 22546.45, -12183.47, 12936.21, 0.00, 0.00, 0.00
11, 5927.57, 123694.46, -48576.20, -43020.49, -23077.37, 23036.69, -12622.68, 16429.52, 0.00, 0.00, 0.00
12, 2779.46, 154040.08, -50049.49, -48498.25, -37364.61, 19695.71, -11581.02, 12023.23, -0.30, 0.27, 0.95
13, -1448.75, 187500.00, -52540.39, -59718.27, -50607.14, 18445.53, -10351.29, 7765.96, 0.00, 0.00, 0.00
14, 1114.86, 164921.80, -51536.91, -55683.56, -37008.18, 21904.22, -11790.61, 11743.32, 0.00, 0.00, 0.00
15, 5790.60, 124553.15, -48746.29, -43805.64, -22685.68, 23389.47, -12684.86, 16510.65, 0.00, 0.00, 0.00
16, 3709.90, 145468.05, -49518.54, -46463.40, -33879.12, 20327.19, -11765.82, 13169.67, 0.00, 0.00, 0.00
17, -999.48, 186836.95, -52158.00, -58299.41, -49802.19, 18282.29, -10360.64, 8075.08, -0.29, 0.27, 0.94
18, 175.04, 173348.80, -51916.98, -57700.09, -40943.16, 21180.91, -11283.45, 10587.46, 0.00, 0.00, 0.00
19, 5428.12, 127226.37, -48969.41, -45098.55, -23210.03, 23593.96, -12595.99, 16316.17, 0.00, 0.00, 0.00
20, 4552.45, 137426.66, -49070.41, -44751.92, -30572.98, 21002.77, -11913.52, 14259.99, 0.00, 0.00, 0.00
21, -353.29, 181221.25, -51754.03, -56412.07, -48062.53, 18322.48, -10508.25, 8663.31, 0.00, 0.00, 0.00
22, -642.14, 181027.69, -52324.94, -59291.44, -44576.37, 20427.17, -10893.90, 9517.69, 0.00, 0.00, 0.00
23, 4761.77, 133142.72, -49439.44, -47004.46, -24849.82, 23570.49, -12555.76, 15738.40, -0.28, 0.27, 0.95
24, 5213.28, 131997.86, -48831.68, -43571.62, -27719.20, 21654.79, -12149.02, 15159.56, 0.00, 0.00, 0.00
25, 434.50, 175342.59, -51364.39, -54257.16, -45605.18, 18556.78, -10776.27, 9464.15, 0.00, 0.00, 0.00
26, -1234.93, 186767.61, -52622.09, -60278.72, -47533.57, 19724.38, -10583.82, 8662.19, 0.00, 0.00, 0.00
27, 3888.33, 140955.75, -49982.61, -49319.64, -27436.90, 23323.64, -12424.10, 14867.33, 0.00, 0.00, 0.00
28, 5702.33, 127306.63, -48626.60, -42932.09, -25375.98, 22247.32, -12323.30, 15885.47, -0.29, 0.28, 0.96
29, 1348.77, 167173.03, -50808.57, -51926.41, -42562.73, 18929.58, -11011.36, 10455.30, 0.00, 0.00, 0.00
30, -1526.24, 187500.00, -52658.92, -60497.92, -49488.82, 19131.57, -10303.39, 8112.41, 0.00, 0.00, 0.00
31, 2889.12, 150147.28, -50535.04, -51797.59, -30772.90, 22896.34, -12141.49, 13798.09, 0.00, 0.00, 0.00
32, 5990.74, 125079.42, -48539.83, -42859.85, -23702.15, 22775.00, -12448.22, 16398.16, 0.00, 0.00, 0.00
33, 2318.90, 159078.55, -50274.14, -49638.57, -39228.47, 19435.53, -11261.61, 11554.98, -0.28, 0.28, 0.96
34, -1539.68, 187500.00, -52597.56, -60043.96, -50412.73, 18696.65, -10183.75, 7880.55, 0.00, 0.00, 0.00
35, 1812.95, 159456.42, -51096.24, -54265.00, -34617.31, 22314.26, -11794.32, 12589.13, 0.00, 0.00, 0.00
36, 6035.86, 124248.20, -48533.88, -43347.79, -22800.66, 23197.33, -12500.64, 16657.68, 0.00, 0.00, 0.00
37, 3295.88, 150617.58, -49710.08, -47489.57, -35751.10, 20032.59, -11466.13, 12718.34, 0.00, 0.00, 0.00
38, -1252.06, 187500.00, -52353.26, -58920.47, -50210.00, 18450.83, -10154.26, 8012.94, -0.29, 0.28, 0.96
39, 757.25, 169110.70, -51645.65, -56518.55, -38656.27, 21625.07, -11392.59, 11354.10, 0.00, 0.00, 0.00
40, 5801.80, 126657.81, -48715.04, -44426.15, -22836.53, 23477.24, -12511.10, 16611.06, 0.00, 0.00, 0.00
41, 4184.60, 143427.97, -49276.21, -45699.08, -32434.01, 20657.95, -11711.44, 13809.42, 0.00, 0.00, 0.00
42, -716.02, 185358.27, -51995.79, -57309.96, -49014.49, 18398.64, -10239.09, 8457.23, 0.00, 0.00, 0.00
43, -161.16, 177302.81, -52082.63, -58342.23, -42489.52, 20900.65, -10940.69, 10218.17, 0.00, 0.00, 0.00
44, 5270.09, 130728.06, -49109.78, -46078.99, -23919.38, 23547.14, -12524.24, 16184.21, -0.29, 0.27, 0.95
45, 4943.29, 136092.75, -48919.23, -44318.50, -29392.21, 21284.65, -11957.56, 14774.41, 0.00, 0.00, 0.00
46, 9.48, 179439.95, -51548.42, -55344.37, -46986.41, 18506.33, -10444.28, 9128.81, 0.00, 0.00, 0.00
47, -882.92, 184204.47, -52393.16, -59630.12, -45824.00, 20184.36, -10537.42, 9243.92, 0.00, 0.00, 0.00
48, 4523.14, 137433.94, -49538.46, -48095.50, -25905.40, 23459.45, -12365.57, 15508.06, 0.00, 0.00, 0.00
49, 5575.67, 130634.12, -48577.58, -43320.85, -26675.76, 21926.70, -12074.88, 15655.18, -0.29, 0.28, 0.96
50, 908.82, 172191.06, -50984.21, -53101.51, -44225.09, 18788.41, -10655.10, 10055.80, 0.00, 0.00, 0.00
51, -1321.66, 187500.00, -52519.58, -60257.29, -48346.06, 19528.00, -10199.57, 8539.66, 0.00, 0.00, 0.00
52, 3577.31, 145758.42, -50094.06, -50421.91, -28811.44, 23161.57, -12139.03, 14555.54, 0.00, 0.00, 0.00
53, 5975.14, 127076.68, -48452.57, -42919.26, -24607.82, 22493.81, -12253.07, 16286.75, 0.00, 0.00, 0.00
54, 1853.88, 164567.81, -50487.56, -50855.63, -41095.94, 19203.93, -10955.42, 11087.47, -0.29, 0.28, 0.96
55, -1487.67, 187500.00, -52535.98, -60206.93, -49886.70, 19019.97, -9990.63, 8156.75, 0.00, 0.00, 0.00
56, 2524.76, 154389.06, -50628.60, -52844.77, -32348.31, 22688.09, -11786.88, 13441.36, 0.00, 0.00, 0.00
57, 6168.14, 124461.98, -48328.02, -43010.01, -23171.38, 22996.64, -12274.86, 16722.81, 0.00, 0.00, 0.00
58, 2863.82, 155536.13, -49852.14, -48577.52, -37620.93, 19751.25, -11123.59, 12257.29, 0.00, 0.00, 0.00
59, -1344.06, 187500.00, -52329.97, -59448.26, -50299.34, 18650.07, -9883.05, 8096.96, -0.29, 0.28, 0.95
60, 1444.77, 163936.34, -51210.77, -55208.29, -36302.43, 22063.83, -11404.60, 12210.49, 0.00, 0.00, 0.00
61, 6075.54, 125132.28, -48465.60, -43755.95, -22677.01, 23364.12, -12335.48, 16838.20, 0.00, 0.00, 0.00
62, 3804.94, 147115.84, -49351.11, -46588.57, -34196.92, 20358.39, -11359.92, 13392.34, 0.00, 0.00, 0.00
63, -934.86, 187220.73, -52006.88, -58093.61, -49636.94, 18485.14, -9908.10, 8380.36, 0.00, 0.00, 0.00
64, 449.85, 172751.13, -51676.76, -57249.12, -40252.65, 21359.42, -10958.08, 11018.20, -0.29, 0.28, 0.96
65, 5709.33, 128677.67, -48769.58, -45080.29, -23168.34, 23556.95, -12359.80, 16615.19, 0.00, 0.00, 0.00
66, 4632.69, 140641.69, -49016.95, -45012.43, -31031.71, 20977.74, -11667.66, 14406.41, 0.00, 0.00, 0.00
67, -330.49, 183126.31, -51709.80, -56364.97, -48127.24, 18498.93, -10137.21, 8898.56, 0.00, 0.00, 0.00
68, -413.78, 180977.47, -52119.73, -58870.45, -43929.45, 20635.93, -10572.60, 9936.13, 0.00, 0.00, 0.00
69, 5071.01, 134191.63, -49170.53, -46912.69, -24650.02, 23549.95, -12307.72, 16075.87, 0.00, 0.00, 0.00
70, 5333.44, 134209.53, -48662.65, -43834.36, -28146.77, 21591.63, -11877.20, 15326.64, -0.28, 0.27, 0.95
71, 467.40, 176944.41, -51221.61, -54275.82, -45771.99, 18686.79, -10360.53, 9690.82, 0.00, 0.00, 0.00
72, -1025.36, 186652.02, -52357.28, -59839.29, -46909.94, 19966.68, -10172.48, 9097.74, 0.00, 0.00, 0.00
73, 4225.55, 141510.83, -49642.75, -49084.81, -27043.78, 23362.96, -12113.17, 15274.91, 0.00, 0.00, 0.00
74, 5886.94, 129558.77, -48350.53, -43088.04, -25673.15, 22207.84, -11974.75, 16133.00, 0.00, 0.00, 0.00
75, 1402.84, 169111.59, -50640.91, -52004.59, -42819.04, 19023.41, -10590.75, 10677.07, -0.29, 0.28, 0.95
76, -1362.99, 187500.00, -52434.26, -60168.37, -49037.29, 19356.03, -9906.05, 8500.70, 0.00, 0.00, 0.00
77, 3224.40, 149536.31, -50166.23, -51442.43, -30220.54, 22995.79, -11813.03, 14244.83, 0.00, 0.00, 0.00
78, 6190.83, 126372.76, -48248.99, -42920.85, -23895.02, 22742.07, -12106.62, 16660.52, 0.00, 0.00, 0.00
79, 2367.43, 161285.52, -50117.57, -49796.51, -39566.70, 19483.72, -10884.56, 11744.90, 0.00, 0.00, 0.00
80, -1390.37, 187500.00, -52322.55, -59806.98, -50074.14, 18904.23, -9737.49, 8258.10, -0.29, 0.28, 0.95
81, 2138.93, 159363.64, -50755.76, -53838.89, -33977.13, 22463.10, -11450.37, 13062.45, 0.00, 0.00, 0.00
82, 6239.87, 125992.31, -48304.38, -43323.00, -22889.39, 23181.40, -12204.12, 16934.66, 0.00, 0.00, 0.00
83, 3334.99, 153184.45, -49597.78, -47708.37, -36163.24, 20037.47, -11153.34, 12869.73, 0.00, 0.00, 0.00
84, -1144.77, 187500.00, -52155.36, -58847.04, -50089.12, 18627.61, -9739.21, 8336.40, 0.00, 0.00, 0.00
85, 1062.22, 168465.53, -51325.46, -56094.45, -37983.14, 21804.44, -11062.17, 11834.80, -0.30, 0.27, 0.95
86, 6014.36, 127204.42, -48490.95, -44307.32, -22791.80, 23470.27, -12245.67, 16894.05, 0.00, 0.00, 0.00
87, 4233.11, 145263.42, -49126.92, -45879.48, -32813.32, 20643.31, -11395.57, 13957.75, 0.00, 0.00, 0.00
88, -634.16, 186271.52, -51795.29, -57335.48, -49040.84, 18522.87, -9837.70, 8721.40, 0.00, 0.00, 0.00
89, 122.29, 176784.61, -51756.22, -57956.15, -41845.44, 21086.10, -10604.23, 10679.46, 0.00, 0.00, 0.00
90, 5534.47, 131442.41, -48808.68, -45799.19, -23655.95, 23603.69, -12184.45, 16554.30, -0.29, 0.28, 0.95
91, 5026.93, 138170.56, -48725.48, -44405.67, -29683.94, 21279.78, -11595.50, 14965.41, 0.00, 0.00, 0.00
92, 69.07, 180643.47, -51379.73, -55441.85, -47135.94, 18592.47, -10059.94, 9353.98, 0.00, 0.00, 0.00
93, -636.11, 183899.78, -52119.44, -59318.93, -45270.68, 20379.20, -10206.59, 9688.52, 0.00, 0.00, 0.00
94, 4804.42, 137317.58, -49233.89, -47760.07, -25516.24, 23537.79, -12054.72, 15906.69, 0.00, 0.00, 0.00
95, 5676.40, 132380.69, -48378.72, -43369.96, -26926.01, 21916.06, -11731.16, 15849.73, 0.00, 0.00, 0.00
96, 945.23, 173942.00, -50841.45, -53247.80, -44479.66, 18853.05, -10277.85, 10244.12, -0.29, 0.28, 0.95
97, -1121.57, 187500.00, -52290.65, -60015.44, -47898.02, 19734.11, -9858.44, 8956.63, 0.00, 0.00, 0.00
98, 3895.71, 144873.88, -49721.12, -50003.84, -28249.63, 23281.67, -11789.14, 15022.14, 0.00, 0.00, 0.00
99, 6118.63, 128338.70, -48209.25, -42893.20, -24772.37, 22484.67, -11884.15, 16523.41, 0.00, 0.00, 0.00
100, 1895.07, 165983.00, -50302.02, -50980.04, -41372.79, 19252.54, -10555.14, 11276.07, 0.00, 0.00, 0.00
101, -1321.14, 187500.00, -52266.36, -59998.05, -49523.62, 19203.70, -9609.60, 8529.96, -0.29, 0.27, 0.95
102, 2853.27, 153871.14, -50277.10, -52402.99, -31701.90, 22836.29, -11456.16, 13919.24, 0.00, 0.00, 0.00
103, 6345.75, 126141.80, -48104.62, -42941.90, -23257.64, 22998.40, -11943.88, 16991.39, 0.00, 0.00, 0.00
104, 2876.09, 158041.45, -49785.60, -48776.58, -38016.49, 19770.30, -10822.92, 12396.46, 0.00, 0.00, 0.00
105, -1249.93, 187500.00, -52204.31, -59362.30, -50135.57, 18826.40, -9567.15, 8407.18, 0.00, 0.00, 0.00
106, 1732.26, 163545.97, -50930.48, -54803.82, -35648.80, 22223.18, -11150.91, 12660.43, -0.29, 0.27, 0.95
107, 6263.67, 126472.00, -48251.96, -43677.12, -22694.15, 23350.71, -12080.33, 17092.76, 0.00, 0.00, 0.00
108, 3812.56, 149526.81, -49270.78, -46814.81, -34637.67, 20341.32, -11099.12, 13492.34, 0.00, 0.00, 0.00
109, -903.57, 187500.00, -51935.53, -58101.28, -49649.70, 18633.89, -9608.81, 8603.79, 0.00, 0.00, 0.00
110, 693.71, 172257.64, -51437.87, -56859.15, -39595.46, 21545.58, -10711.54, 11444.99, 0.00, 0.00, 0.00
111, 5923.28, 129108.86, -48503.55, -44924.01, -23029.90, 23557.04, -12102.78, 16903.48, -0.29, 0.28, 0.95
112, 4667.45, 142193.91, -48840.30, -45176.94, -31402.66, 20955.30, -11355.09, 14538.07, 0.00, 0.00, 0.00
113, -305.79, 183849.44, -51516.03, -56348.23, -48159.02, 18632.99, -9737.92, 9120.94, 0.00, 0.00, 0.00
114, -183.31, 179963.88, -51805.62, -58403.18, -43211.08, 20858.36, -10226.55, 10367.39, 0.00, 0.00, 0.00
115, 5333.17, 134006.53, -48860.29, -46572.36, -24272.07, 23622.51, -11986.30, 16439.62, 0.00, 0.00, 0.00
116, 5393.61, 135988.67, -48483.97, -43833.16, -28370.38, 21621.56, -11524.22, 15509.94, 0.00, 0.00, 0.00
117, 397.66, 177724.08, -51122.17, -54044.66, -45732.09, 18881.32, -9957.61, 9865.52, -0.29, 0.28, 0.95
118, -961.48, 185282.67, -52166.51, -58977.51, -45928.27, 20321.63, -9784.72, 9452.91, 0.00, 0.00, 0.00
119, 4454.52, 139350.14, -49290.42, -48185.24, -26032.70, 23618.53, -11646.04, 15708.49, 0.00, 0.00, 0.00
120, 5955.24, 129790.72, -48159.56, -42772.95, -25509.80, 22291.57, -11576.12, 16325.00, 0.00, 0.00, 0.00
121, 1372.31, 170278.78, -50525.71, -51847.62, -42767.00, 19180.30, -10183.77, 10838.74, 0.00, 0.00, 0.00
122, -1242.69, 187500.00, -52221.30, -59636.71, -48294.65, 19640.83, -9539.72, 8858.31, -0.28, 0.28, 0.95
123, 3520.27, 148895.31, -49866.05, -50919.91, -29465.21, 23145.99, -11541.90, 14657.80, 0.00, 0.00, 0.00
124, 6347.63, 128024.30, -48031.02, -42952.41, -24021.13, 22711.49, -11869.04, 16866.71, 0.00, 0.00, 0.00
125, 2386.50, 163143.88, -49975.53, -49972.40, -39903.81, 19529.01, -10595.78, 11896.31, 0.00, 0.00, 0.00
126, -1297.54, 187500.00, -52173.15, -59590.62, -49779.61, 19131.28, -9440.35, 8584.66, 0.00, 0.00, 0.00
127, 2440.79, 158308.34, -50421.22, -53446.51, -33318.94, 22604.52, -11230.41, 13509.77, -0.29, 0.27, 0.95
128, 6470.85, 126600.90, -47947.60, -43395.84, -23003.70, 23123.84, -11952.86, 17212.59, 0.00, 0.00, 0.00
129, 3396.03, 154829.25, -49348.00, -47982.13, -36630.13, 20033.98, -10837.82, 13054.74, 0.00, 0.00, 0.00
130, -1065.26, 187500.00, -51917.60, -58738.35, -49986.37, 18827.77, -9374.81, 8664.77, 0.00, 0.00, 0.00
131, 1366.34, 167708.47, -50951.98, -55665.74, -37290.96, 21996.55, -10777.18, 12334.41, 0.00, 0.00, 0.00
132, 6289.74, 128524.36, -48138.82, -44320.00, -22803.58, 23435.04, -12005.10, 17234.33, -0.29, 0.27, 0.95
133, 4301.79, 147475.16, -48919.85, -46223.92, -33356.89, 20605.33, -11152.45, 14134.44, 0.00, 0.00, 0.00
134, -606.72, 187136.91, -51609.28, -57336.40, -49122.79, 18693.01, -9514.49, 9000.49, 0.00, 0.00, 0.00
135, 365.32, 175700.16, -51406.02, -57490.99, -41145.29, 21321.08, -10311.95, 11169.72, 0.00, 0.00, 0.00
136, 5822.45, 131242.80, -48400.78, -45652.18, -23453.55, 23615.96, -11910.77, 16940.63, 0.00, 0.00, 0.00
137, 5108.25, 140233.86, -48504.31, -44681.14, -30149.66, 21237.78, -11347.42, 15151.35, -0.29, 0.27, 0.95
138, 53.96, 182159.69, -51225.57, -55473.32, -47304.20, 18743.03, -9735.30, 9591.98, 0.00, 0.00, 0.00
139, -472.20, 182852.23, -51830.63, -58835.38, -44591.06, 20624.36, -9932.15, 10109.92, 0.00, 0.00, 0.00
140, 5050.76, 137150.70, -48906.38, -47488.61, -25140.71, 23590.21, -11830.08, 16283.92, 0.00, 0.00, 0.00
141, 5689.70, 134219.56, -48209.00, -43605.66, -27329.97, 21858.24, -11553.21, 16008.81, 0.00, 0.00, 0.00
142, 823.73, 175767.31, -50739.80, -53341.18, -44752.46, 18972.70, -9992.59, 10425.43, 0.00, 0.00, 0.00
143, -1072.12, 187500.00, -52067.14, -59535.61, -47277.16, 20022.92, -9542.00, 9365.96, -0.30, 0.28, 0.95
144, 4071.55, 144710.95, -49438.70, -49619.30, -27696.80, 23381.91, -11588.62, 15407.21, 0.00, 0.00, 0.00
145, 6076.61, 130218.55, -47997.62, -43037.59, -25034.42, 22433.75, -11685.98, 16703.93, 0.00, 0.00, 0.00
146, 1668.20, 168075.25, -50202.95, -51141.44, -41725.72, 19319.15, -10287.97, 11410.65, 0.00, 0.00, 0.00
147, -1426.64, 187500.00, -52136.63, -59637.18, -49082.17, 19469.64, -9326.15, 8857.08, 0.00, 0.00, 0.00
148, 2928.93, 153360.75, -50033.20, -51928.35, -31022.95, 22985.06, -11270.06, 14303.95, -0.30, 0.28, 0.95
149, 6229.45, 127860.67, -47924.73, -42989.89, -23400.85, 22954.66, -11781.40, 17164.53, 0.00, 0.00, 0.00
150, 2562.36, 159788.41, -49644.59, -48933.33, -38364.45, 19806.95, -10551.50, 12509.96, 0.00, 0.00, 0.00
151, -1478.77, 187500.00, -52036.25, -59053.80, -49800.09, 19072.38, -9227.51, 8694.54, 0.00, 0.00, 0.00
152, 1744.02, 162810.41, -50616.89, -54189.30, -34800.93, 22445.98, -10863.84, 13108.45, 0.00, 0.00, 0.00
153, 6137.43, 127695.71, -47980.84, -43532.46, -22596.21, 23352.28, -11828.79, 17353.69, -0.30, 0.27, 0.95
154, 3451.31, 151567.36, -49107.50, -46981.78, -34982.63, 20344.22, -10824.93, 13621.91, 0.00, 0.00, 0.00
155, -1215.98, 187500.00, -51720.84, -57948.59, -49489.71, 18818.13, -9254.31, 8868.26, 0.00, 0.00, 0.00
156, 640.62, 171312.14, -51104.94, -56284.04, -38776.45, 21778.04, -10408.07, 11905.41, 0.00, 0.00, 0.00
157, 5756.00, 129263.40, -48191.50, -44682.68, -22794.49, 23583.21, -11837.80, 17224.39, 0.00, 0.00, 0.00
158, 4190.97, 144268.91, -48666.59, -45365.16, -31769.00, 20925.21, -11097.95, 14679.19, -0.29, 0.27, 0.95
159, -800.35, 185269.69, -51374.50, -56409.50, -48269.08, 18748.78, -9437.69, 9331.54, 0.00, 0.00, 0.00
160, -408.99, 179655.36, -51579.06, -58017.46, -42588.21, 21063.03, -10013.11, 10781.10, 0.00, 0.00, 0.00
161, 5032.52, 134433.52, -48606.93, -46372.11, -24018.98, 23638.85, -11815.49, 16755.96, 0.00, 0.00, 0.00
162, 4722.86, 138019.09, -48351.34, -44177.21, -28868.78, 21499.99, -11386.13, 15593.09, 0.00, 0.00, 0.00
163, -301.90, 179533.61, -51005.16, -54594.78, -46286.59, 18820.95, -9779.76, 9983.41, -0.29, 0.27, 0.95
164, -1334.62, 185731.50, -51929.89, -59234.09, -45867.84, 20365.17, -9673.88, 9833.90, 0.00, 0.00, 0.00
165, 4038.29, 140808.92, -49107.61, -48460.84, -26204.67, 23494.63, -11696.40, 15982.41, 0.00, 0.00, 0.00
166, 5116.05, 132706.97, -48080.75, -43413.50, -26356.21, 22070.87, -11586.12, 16369.75, 0.00, 0.00, 0.00
167, 369.30, 172425.08, -50489.28, -52501.12, -43589.95, 19064.63, -10094.74, 10865.14, 0.00, 0.00, 0.00
168, -1990.24, 187500.00, -52109.38, -59766.26, -48292.08, 19731.02, -9416.75, 9134.29, 0.00, 0.00, 0.00
169, 2864.42, 148770.88, -49687.97, -50738.48, -29185.14, 23185.93, -11450.44, 14973.14, -0.29, 0.27, 0.95
170, 5312.20, 129221.53, -47958.77, -43111.84, -24388.41, 22610.02, -11743.03, 16938.67, 0.00, 0.00, 0.00
171, 1139.38, 164971.97, -49956.08, -50322.80, -40434.50, 19470.02, -10394.30, 11896.34, 0.00, 0.00, 0.00
172, -2315.35, 187500.00, -52080.86, -59569.61, -49634.35, 19250.24, -9214.71, 8797.49, 0.00, 0.00, 0.00
173, 1613.19, 157750.22, -50283.85, -53069.41, -32767.01, 22712.66, -11084.72, 13818.59, 0.00, 0.00, 0.00
174, 5299.11, 128194.16, -47958.28, -43359.72, -23139.11, 23066.33, -11827.80, 17276.80, -0.29, 0.27, 0.94
175, 1944.36, 156975.92, -49450.80, -48264.79, -37103.11, 19963.19, -10703.85, 12981.96, 0.00, 0.00, 0.00
176, -2353.68, 187500.00, -51960.29, -58807.46, -49970.65, 18898.33, -9233.95, 8739.96, 0.00, 0.00, 0.00
177, 355.91, 166539.00, -50845.23, -55292.76, -36686.16, 22106.99, -10675.91, 12580.97, 0.00, 0.00, 0.00
178, 5033.25, 128184.10, -48081.75, -44147.60, -22744.82, 23400.11, -11860.71, 17311.22, 0.00, 0.00, 0.00
179, 2727.63, 148417.91, -48962.50, -46419.07, -33751.49, 20522.46, -10986.55, 14050.37, -0.29, 0.27, 0.95
180, -2109.74, 187500.00, -51698.51, -57505.54, -49267.40, 18701.77, -9400.27, 8973.24, 0.00, 0.00, 0.00
181, -824.89, 175120.86, -51414.96, -57257.61, -40646.15, 21408.72, -10300.29, 11340.54, 0.00, 0.00, 0.00
182, 4477.08, 131292.17, -48431.69, -45541.59, -23381.31, 23559.86, -11894.79, 16994.23, 0.00, 0.00, 0.00
183, 3407.32, 141328.25, -48600.78, -44971.57, -30641.85, 21105.66, -11286.94, 15021.51, 0.00, 0.00, 0.00
184, -1628.12, 182892.73, -51317.52, -55790.20, -47651.62, 18700.34, -9643.77, 9509.24, -0.28, 0.27, 0.95
185, -1811.36, 182417.19, -51812.59, -58722.81, -44211.48, 20708.85, -9889.95, 10278.43, 0.00, 0.00, 0.00
186, 3696.35, 136978.73, -48828.46, -47334.94, -24941.60, 23560.10, -11767.34, 16418.52, 0.00, 0.00, 0.00
187, 3995.17, 135586.27, -48214.36, -43856.80, -27781.18, 21722.86, -11437.79, 15937.46, 0.00, 0.00, 0.00
188, -922.37, 176633.78, -50738.44, -53698.07, -45177.39, 18901.33, -9834.83, 10359.05, 0.00, 0.00, 0.00
189, -2515.00, 187334.81, -51948.07, -59507.38, -46997.54, 20066.79, -9450.25, 9507.20, 0.00, 0.00, 0.00
190, 2730.22, 143432.30, -49256.47, -49392.30, -27362.38, 23386.05, -11463.27, 15616.09, -0.29, 0.28, 0.96
191, 4424.91, 130549.56, -47929.00, -43186.21, -25382.77, 22321.52, -11519.35, 16708.82, 0.00, 0.00, 0.00
192, -106.39, 169286.20, -50209.77, -51508.01, -42217.17, 19240.78, -10113.25, 11361.57, 0.00, 0.00, 0.00
193, -2965.94, 187500.00, -52076.50, -59728.48, -48980.80, 19500.91, -9236.12, 8978.43, 0.00, 0.00, 0.00
194, 1562.34, 152382.00, -49899.38, -51743.71, -30667.40, 22999.23, -11211.81, 14528.70, 0.00, 0.00, 0.00
195, 4577.73, 127965.48, -47893.95, -43152.84, -23745.91, 22822.18, -11695.35, 17167.95, -0.29, 0.27, 0.95
196, 731.15, 160881.06, -49693.63, -49387.88, -38976.30, 19678.21, -10456.48, 12412.73, 0.00, 0.00, 0.00
197, -3123.25, 187500.00, -52002.70, -59299.33, -49911.98, 19060.43, -9154.11, 8748.61, 0.00, 0.00, 0.00
198, 326.29, 161694.61, -50502.60, -54079.84, -34478.17, 22459.17, -10838.83, 13309.26, 0.00, 0.00, 0.00
199, 4498.51, 127394.79, -47950.70, -43664.58, -22858.88, 23227.91, -11781.31, 17375.40, 0.00, 0.00, 0.00
200, 1581.16, 152756.08, -49190.29, -47419.54, -35615.89, 20207.83, -10760.71, 13506.56, -0.29, 0.27, 0.96
201, -2985.88, 187500.00, -51844.42, -58268.11, -49781.00, 18810.36, -9214.44, 8862.35, 0.00, 0.00, 0.00
202, -878.69, 170815.11, -51101.59, -56219.29, -38471.51, 21809.89, -10455.12, 12070.34, 0.00, 0.00, 0.00
203, 4124.99, 129856.12, -48214.25, -44766.00, -22952.92, 23476.01, -11854.45, 17239.74, 0.00, 0.00, 0.00
204, 2337.46, 145568.69, -48795.49, -45783.61, -32398.67, 20771.10, -11099.81, 14514.80, 0.00, 0.00, 0.00
205, -2605.52, 186008.66, -51509.23, -56755.01, -48636.88, 18716.99, -9408.41, 9244.50, -0.30, 0.28, 0.96
206, -1936.15, 178552.75, -51506.33, -57908.05, -42216.23, 21129.08, -9985.51, 10936.73, 0.00, 0.00, 0.00
207, 3518.28, 133825.39, -48524.65, -46283.84, -23937.06, 23582.07, -11760.17, 16834.91, 0.00, 0.00, 0.00
208, 3027.10, 139147.78, -48400.60, -44442.11, -29346.19, 21382.01, -11307.46, 15487.97, 0.00, 0.00, 0.00
209, -2000.93, 180764.78, -51072.93, -54864.84, -46632.91, 18793.55, -9667.98, 9905.67, 0.00, 0.00, 0.00
210, -2813.35, 185168.61, -51873.19, -59115.40, -45514.41, 20430.01, -9630.45, 9940.33, -0.29, 0.27, 0.95
211, 2653.00, 140134.28, -48984.52, -48236.72, -25907.26, 23501.65, -11600.69, 16124.03, 0.00, 0.00, 0.00
212, 3564.12, 133989.19, -48069.08, -43537.33, -26684.29, 21991.39, -11445.86, 16328.84, 0.00, 0.00, 0.00
213, -1227.38, 174259.02, -50526.86, -52721.26, -43932.06, 19061.99, -9905.85, 10819.23, 0.00, 0.00, 0.00
214, -3389.87, 187500.00, -52050.71, -59632.17, -47961.01, 19851.84, -9260.64, 9298.42, 0.00, 0.00, 0.00
215, 1601.52, 147828.59, -49532.83, -50447.64, -28737.79, 23224.36, -11336.29, 15186.31, 0.00, 0.00, 0.00
216, 3901.81, 129676.28, -47858.59, -43147.38, -24589.96, 22538.34, -11560.43, 16972.53, -0.30, 0.27, 0.95
217, -359.39, 165856.70, -49928.66, -50528.06, -40792.18, 19438.91, -10178.58, 11866.27, 0.00, 0.00, 0.00
218, -3677.24, 187500.00, -51992.77, -59513.80, -49431.89, 19330.64, -9055.05, 8908.24, 0.00, 0.00, 0.00
219, 447.35, 156288.33, -50061.98, -52717.44, -32205.24, 22795.29, -10930.49, 14077.75, 0.00, 0.00, 0.00
220, 3998.08, 127863.87, -47834.27, -43310.66, -23233.68, 23010.92, -11651.56, 17352.93, 0.00, 0.00, 0.00
221, 503.12, 157909.84, -49446.73, -48480.89, -37503.84, 19918.82, -10520.43, 12941.91, -0.29, 0.27, 0.95
222, -3699.17, 187500.00, -51942.10, -58834.53, -49927.98, 18975.85, -9071.05, 8824.67, 0.00, 0.00, 0.00
223, -790.87, 166196.56, -50757.59, -55021.43, -36174.26, 22195.82, -10614.31, 12815.55, 0.00, 0.00, 0.00
224, 3789.45, 129315.97, -48041.09, -44122.75, -22806.40, 23339.47, -11788.00, 17390.15, 0.00, 0.00, 0.00
225, 1326.20, 150592.08, -49001.37, -46682.27, -34211.71, 20453.99, -10863.04, 13996.10, 0.00, 0.00, 0.00
226, -3436.29, 187500.00, -51657.56, -57595.75, -49342.68, 18771.87, -9191.71, 9048.25, -0.29, 0.27, 0.95
227, -1929.20, 174586.91, -51254.80, -56970.88, -40101.09, 21520.91, -10170.20, 11601.78, 0.00, 0.00, 0.00
228, 3332.62, 132022.97, -48309.54, -45397.26, -23266.69, 23534.66, -11768.77, 17148.55, 0.00, 0.00, 0.00
229, 2078.80, 143407.38, -48591.95, -45170.24, -31051.78, 21036.39, -11131.75, 15002.58, 0.00, 0.00, 0.00
230, -2942.96, 184295.00, -51309.75, -55941.18, -47845.38, 18750.68, -9429.33, 9559.51, 0.00, 0.00, 0.00
231, -2910.78, 181784.73, -51668.16, -58479.98, -43709.57, 20832.03, -9746.30, 10531.67, -0.29, 0.27, 0.95
232, 2615.02, 136741.31, -48683.53, -47121.97, -24690.96, 23556.28, -11653.39, 16607.81, 0.00, 0.00, 0.00
233, 2733.60, 136876.09, -48162.31, -43988.77, -28122.99, 21653.95, -11271.00, 15950.18, 0.00, 0.00, 0.00
234, -2234.28, 178190.36, -50795.01, -53918.98, -45514.27, 18908.84, -9663.02, 10354.07, 0.00, 0.00, 0.00
235, -3655.56, 187423.02, -51965.68, -59412.66, -46688.95, 20171.58, -9394.10, 9679.27, 0.00, 0.00, 0.00
236, 1658.81, 143961.03, -49230.30, -49221.91, -27081.60, 23384.60, -11478.89, 15772.31, -0.29, 0.27, 0.95
237, 3161.27, 132363.34, -47998.94, -43382.93, -25779.52, 22209.79, -11510.12, 16642.30, 0.00, 0.00, 0.00
238, -1431.54, 170879.86, -50268.38, -51809.60, -42656.49, 19203.21, -9997.60, 11280.84, 0.00, 0.00, 0.00
239, -4113.19, 187500.00, -52056.54, -59686.29, -48762.50, 19604.04, -9126.22, 9107.17, 0.00, 0.00, 0.00
240, 551.37, 152396.05, -49805.43, -51505.26, -30253.85, 23036.85, -11174.91, 14723.34, 0.00, 0.00, 0.00
241, 3405.38, 129618.21, -47882.46, -43253.42, -24004.61, 22728.24, -11630.93, 17165.09, 0.00, 0.00, 0.00
242, -542.07, 162929.53, -49706.79, -49675.77, -39428.68, 19629.77, -10299.13, 12352.47, -0.29, 0.27, 0.95
243, -4255.46, 187500.00, -51953.52, -59294.53, -49783.21, 19166.98, -8963.94, 8881.55, 0.00, 0.00, 0.00
244, -625.07, 160945.98, -50367.89, -53781.76, -33940.99, 22536.01, -10756.93, 13559.35, 0.00, 0.00, 0.00
245, 3402.23, 128970.70, -47921.22, -43665.14, -23004.50, 23151.42, -11702.01, 17422.58, 0.00, 0.00, 0.00
246, 323.88, 155577.92, -49275.27, -47735.61, -36139.68, 20131.34, -10663.44, 13418.15, 0.00, 0.00, 0.00
247, -4148.98, 187500.00, -51844.31, -58393.35, -49830.13, 18870.26, -9069.56, 8918.32, -0.29, 0.27, 0.95
248, -1813.44, 170276.17, -50956.21, -55931.71, -37909.03, 21913.25, -10360.41, 12328.08, 0.00, 0.00, 0.00
249, 3137.20, 130106.82, -48025.25, -44600.20, -22853.85, 23453.55, -11668.66, 17404.83, 0.00, 0.00, 0.00
250, 1191.33, 147034.11, -48680.82, -45928.52, -32752.66, 20723.22, -10832.75, 14541.60, 0.00, 0.00, 0.00
251, -3731.56, 186653.38, -51428.66, -56869.92, -48748.62, 18753.36, -9163.34, 9315.11, 0.00, 0.00, 0.00
252, -2872.02, 178019.61, -51418.89, -57675.07, -41716.40, 21223.05, -9909.98, 11163.85, -0.29, 0.28, 0.95
253, 2562.47, 133972.08, -48434.35, -46111.94, -23780.53, 23564.64, -11672.35, 16999.17, 0.00, 0.00, 0.00
254, 1886.20, 140572.64, -48388.64, -44633.19, -29763.45, 21302.53, -11160.49, 15470.18, 0.00, 0.00, 0.00
255, -3148.65, 182056.83, -51094.32, -55087.62, -46922.17, 18814.20, -9477.61, 9925.76, 0.00, 0.00, 0.00
0, -3742.40, 184795.25, -51797.48, -58937.97, -45082.44, 20561.03, -9512.52, 10195.08, 0.00, 0.00, 0.00
1, 1762.86, 139847.86, -48858.88, -48006.72, -25621.51, 23510.57, -11513.76, 16340.47, -0.29, 0.28, 0.95
2, 2490.92, 135285.69, -48019.82, -43665.05, -27028.60, 21914.63, -11295.30, 16352.40, 0.00, 0.00, 0.00
3, -2348.12, 175375.61, -50504.23, -52960.54, -44280.86, 19053.36, -9698.40, 10832.35, 0.00, 0.00, 0.00
4, -4333.91, 187500.00, -51961.99, -59534.45, -47643.10, 19957.04, -9125.75, 9507.07, 0.00, 0.00, 0.00
5, 742.93, 147548.78, -49433.77, -50205.61, -28372.52, 23252.47, -11286.16, 15409.05, 0.00, 0.00, 0.00
6, 2846.36, 131497.19, -47900.73, -43285.65, -24939.16, 22443.56, -11509.27, 16963.90, 0.00, 0.00, 0.00
7, -1512.16, 168084.95, -50032.68, -50879.50, -41302.85, 19385.80, -10089.26, 11790.97, -0.29, 0.28, 0.95
8, -4668.77, 187500.00, -52036.36, -59573.07, -49328.60, 19427.15, -8978.00, 9040.25, 0.00, 0.00, 0.00
9, -394.71, 156302.91, -49998.10, -52510.23, -31794.13, 22843.15, -10935.79, 14301.03, 0.00, 0.00, 0.00
10, 3014.89, 128969.05, -47777.59, -43359.23, -23443.04, 22933.87, -11565.06, 17397.14, 0.00, 0.00, 0.00
11, -601.89, 160017.20, -49483.32, -48794.44, -38005.99, 19853.29, -10386.83, 12877.13, 0.00, 0.00, 0.00
12, -4688.75, 187500.00, -51924.15, -58946.29, -49923.09, 19048.89, -8929.95, 8928.34, -0.29, 0.27, 0.95
13, -1587.11, 165319.16, -50615.81, -54763.65, -35662.97, 22277.71, -10551.25, 13077.47, 0.00, 0.00, 0.00
14, 2880.49, 129409.87, -47947.66, -44066.13, -22873.70, 23282.94, -11685.78, 17484.09, 0.00, 0.00, 0.00
15, 274.05, 151691.97, -48964.40, -46934.08, -34668.09, 20385.48, -10688.96, 13962.73, 0.00, 0.00, 0.00
16, -4420.35, 187500.00, -51616.37, -57751.30, -49451.54, 18825.71, -9001.87, 9128.54, 0.00, 0.00, 0.00
17, -2702.91, 174023.03, -51117.36, -56722.96, -39577.81, 21636.78, -10075.99, 11886.17, -0.29, 0.28, 0.95
18, 2513.12, 131709.08, -48134.48, -45213.04, -23144.05, 23526.86, -11612.87, 17333.53, 0.00, 0.00, 0.00
19, 1078.49, 144831.86, -48563.95, -45363.78, -31478.05, 20970.72, -10965.21, 14991.65, 0.00, 0.00, 0.00
20, -3930.33, 185371.38, -51307.33, -56156.03, -48083.56, 18780.31, -9256.24, 9602.29, 0.00, 0.00, 0.00
21, -3690.16, 181350.48, -51578.70, -58304.41, -43261.13, 20951.05, -9668.94, 10787.64, 0.00, 0.00, 0.00
22, 1833.18, 136660.50, -48583.75, -46940.32, -24497.76, 23554.98, -11580.97, 16792.78, -0.28, 0.28, 0.95
23, 1747.77, 138484.00, -48222.21, -44213.52, -28575.63, 21561.41, -11207.95, 15901.77, 0.00, 0.00, 0.00
24, -3241.45, 179398.02, -50852.61, -54230.89, -45894.03, 18898.73, -9550.99, 10324.09, 0.00, 0.00, 0.00
25, -4440.71, 187067.98, -51860.20, -59295.96, -46313.64, 20296.88, -9286.68, 9909.78, 0.00, 0.00, 0.00
26, 951.13, 143238.78, -49039.99, -48953.09, -26724.33, 23424.20, -11359.92, 16022.49, 0.00, 0.00, 0.00
27, 2277.82, 133361.75, -47912.59, -43459.70, -26068.35, 22150.78, -11339.64, 16690.47, -0.29, 0.28, 0.96
28, -2384.91, 172222.70, -50251.35, -52065.73, -43036.96, 19191.97, -9806.20, 11284.81, 0.00, 0.00, 0.00
29, -4894.72, 187500.00, -51926.25, -59613.20, -48478.29, 19720.18, -8965.11, 9320.48, 0.00, 0.00, 0.00
30, -107.04, 151363.11, -49606.63, -51190.03, -29779.34, 23108.60, -11059.33, 15008.06, 0.00, 0.00, 0.00
31, 2580.69, 130456.40, -47794.73, -43245.68, -24200.10, 22685.68, -11472.73, 17246.99, 0.00, 0.00, 0.00
32, -1499.89, 164955.36, -49790.23, -49978.32, -39921.98, 19590.37, -10177.11, 12302.15, 0.00, 0.00, 0.00
33, -5079.72, 187500.00, -51961.05, -59364.24, -49692.04, 19272.25, -8865.51, 9024.83, -0.29, 0.28, 0.95
34, -1257.60, 160277.31, -50191.76, -53463.71, -33384.70, 22638.11, -10682.77, 13862.62, 0.00, 0.00, 0.00
35, 2642.89, 129247.46, -47750.05, -43561.69, -23058.62, 23125.61, -11513.25, 17560.45, 0.00, 0.00, 0.00
36, -573.05, 156567.22, -49187.98, -47934.21, -36541.17, 20094.15, -10421.86, 13425.49, 0.00, 0.00, 0.00
37, -4955.92, 187500.00, -51736.44, -58453.63, -49796.98, 18952.22, -8854.55, 9053.04, 0.00, 0.00, 0.00
38, -2409.16, 168880.20, -50722.12, -55576.70, -37280.52, 22040.79, -10214.72, 12660.16, -0.28, 0.27, 0.94
39, 2425.68, 130418.11, -47926.74, -44461.44, -22837.20, 23428.94, -11548.59, 17551.55, 0.00, 0.00, 0.00
40, 296.34, 149103.88, -48726.27, -46186.50, -33239.05, 20660.01, -10716.05, 14505.79, 0.00, 0.00, 0.00
41, -4572.81, 187500.00, -51434.31, -57056.49, -48914.13, 18815.21, -9003.21, 9388.13, 0.00, 0.00, 0.00
42, -3486.04, 177466.30, -51277.16, -57413.88, -41168.36, 21362.68, -9813.89, 11470.49, 0.00, 0.00, 0.00
43, 1912.97, 133852.97, -48273.48, -45905.72, -23608.25, 23565.87, -11553.33, 17195.29, -0.28, 0.27, 0.94
44, 1076.66, 141869.27, -48267.29, -44755.28, -30108.20, 21262.48, -10927.59, 15515.11, 0.00, 0.00, 0.00
45, -3951.01, 182695.20, -50951.29, -55235.65, -47103.10, 18847.53, -9205.72, 10003.92, 0.00, 0.00, 0.00
46, -4333.82, 183812.77, -51562.03, -58669.30, -44531.38, 20698.16, -9327.70, 10490.34, 0.00, 0.00, 0.00
47, 1200.47, 139281.30, -48630.04, -47668.98, -25246.18, 23561.53, -11328.18, 16621.23, 0.00, 0.00, 0.00
48, 1720.06, 136175.34, -47944.98, -43742.52, -27344.95, 21861.97, -11106.20, 16400.17, -0.28, 0.27, 0.95
49, -3186.73, 176557.52, -50531.50, -53218.96, -44652.75, 19044.56, -9543.70, 10824.75, 0.00, 0.00, 0.00
50, -4983.46, 187500.00, -51880.99, -59432.23, -47292.89, 20063.21, -9065.91, 9697.91, 0.00, 0.00, 0.00
51, 203.27, 146741.48, -49244.36, -49883.14, -27933.02, 23315.86, -11188.43, 15672.60, 0.00, 0.00, 0.00
52, 2129.76, 132196.17, -47795.54, -43308.36, -25183.13, 22396.47, -11339.02, 17027.20, 0.00, 0.00, 0.00
53, -2327.69, 169468.48, -50041.91, -51137.26, -41721.61, 19368.23, -9919.10, 11771.63, -0.29, 0.28, 0.95
54, -5328.10, 187500.00, -51950.79, -59520.93, -49081.37, 19543.00, -8844.56, 9221.99, 0.00, 0.00, 0.00
55, -905.07, 155540.59, -49827.60, -52171.65, -31264.43, 22923.97, -10858.41, 14581.74, 0.00, 0.00, 0.00
56, 2328.67, 130219.72, -47745.63, -43367.01, -23645.82, 22874.30, -11482.85, 17450.43, 0.00, 0.00, 0.00
57, -1408.85, 161607.83, -49508.44, -49071.82, -38472.31, 19808.63, -10255.85, 12830.21, 0.00, 0.00, 0.00
58, -5373.83, 187500.00, -51849.54, -58972.04, -49818.66, 19136.47, -8792.80, 9044.95, 0.00, 0.00, 0.00
59, -2058.91, 163819.58, -50356.40, -54378.80, -35021.88, 22393.52, -10423.42, 13384.09, -0.29, 0.27, 0.95
60, 2293.24, 129555.98, -47764.94, -43915.57, -22866.08, 23266.71, -11502.03, 17629.78, 0.00, 0.00, 0.00
61, -487.98, 153771.09, -48983.24, -47153.08, -35121.29, 20344.56, -10539.50, 13933.81, 0.00, 0.00, 0.00
62, -5111.42, 187500.00, -51603.27, -57820.38, -49477.06, 18933.02, -8820.24, 9250.20, 0.00, 0.00, 0.00
63, -3179.83, 173109.42, -50935.64, -56383.95, -38947.85, 21772.52, -9979.32, 12199.60, 0.00, 0.00, 0.00
64, 1970.40, 132078.67, -47968.90, -45025.44, -23017.49, 23517.59, -11479.54, 17510.69, -0.29, 0.28, 0.95
65, 360.56, 146577.28, -48508.49, -45529.63, -31866.93, 20924.05, -10785.70, 14999.88, 0.00, 0.00, 0.00
66, -4624.87, 186274.42, -51246.42, -56272.48, -48214.07, 18844.76, -9035.40, 9686.26, 0.00, 0.00, 0.00
67, -4162.10, 180612.91, -51369.85, -57981.41, -42645.43, 21097.43, -9525.40, 11096.50, 0.00, 0.00, 0.00
68, 1350.05, 136470.27, -48387.59, -46661.75, -24220.82, 23573.96, -11444.18, 17019.94, 0.00, 0.00, 0.00
69, 1069.96, 140024.33, -48148.58, -44316.40, -28918.55, 21510.92, -11034.85, 15929.31, -0.29, 0.28, 0.95
70, -3943.00, 180628.86, -50795.52, -54393.13, -46139.12, 18924.21, -9343.86, 10364.93, 0.00, 0.00, 0.00
71, -4935.29, 186344.45, -51662.23, -59051.16, -45804.89, 20430.30, -9138.69, 10169.46, 0.00, 0.00, 0.00
72, 504.26, 142844.41, -48860.06, -48629.28, -26328.28, 23472.57, -11251.58, 16271.80, 0.00, 0.00, 0.00
73, 1630.85, 135049.58, -47865.32, -43530.78, -26367.86, 22100.38, -11206.65, 16725.77, 0.00, 0.00, 0.00
74, -3101.64, 173917.42, -50266.52, -52305.23, -43408.36, 19187.14, -9648.33, 11277.17, -0.29, 0.28, 0.95
75, -5422.73, 187500.00, -51792.59, -59474.23, -48111.12, 19852.28, -8821.83, 9541.13, 0.00, 0.00, 0.00
76, -501.86, 150643.17, -49354.89, -50792.93, -29220.48, 23200.55, -10906.31, 15323.26, 0.00, 0.00, 0.00
77, 2020.35, 130925.74, -47606.80, -43182.25, -24329.22, 22656.82, -11248.49, 17367.28, 0.00, 0.00, 0.00
78, -2143.71, 165774.48, -49634.42, -50093.70, -40196.41, 19605.12, -9870.91, 12376.21, 0.00, 0.00, 0.00
79, -5593.99, 187500.00, -51780.34, -59214.51, -49401.89, 19412.02, -8600.86, 9265.78, 0.00, 0.00, 0.00
80, -1632.64, 159824.05, -49984.51, -53064.76, -32784.04, 22753.25, -10543.23, 14197.96, -0.29, 0.28, 0.95
81, 2121.25, 130059.99, -47628.97, -43466.34, -23116.55, 23104.91, -11361.19, 17701.24, 0.00, 0.00, 0.00
82, -1219.20, 158408.17, -49138.92, -48098.16, -36901.43, 20087.60, -10213.85, 13464.60, 0.00, 0.00, 0.00
83, -5523.83, 187500.00, -51688.90, -58458.48, -49732.45, 19065.81, -8665.28, 9215.56, 0.00, 0.00, 0.00
84, -2803.11, 168452.38, -50592.97, -55256.30, -36705.05, 22157.48, -10159.45, 12954.02, 0.00, 0.00, 0.00
85, 1940.82, 130968.25, -47801.02, -44312.64, -22789.66, 23418.39, -11434.12, 17706.02, -0.29, 0.28, 0.95
86, -350.65, 150996.20, -48718.40, -46371.06, -33644.56, 20620.80, -10571.06, 14503.29, 0.00, 0.00, 0.00
87, -5171.14, 187500.00, -51411.16, -57152.18, -48995.11, 18903.27, -8813.63, 9499.87, 0.00, 0.00, 0.00
88, -3869.33, 176909.20, -51094.99, -57093.48, -40562.63, 21515.25, -9688.12, 11794.90, 0.00, 0.00, 0.00
89, 1488.58, 134588.00, -48109.91, -45667.50, -23405.88, 23587.44, -11413.11, 17412.77, 0.00, 0.00, 0.00
90, 447.37, 144368.81, -48288.91, -44926.54, -30512.95, 21208.14, -10815.61, 15506.99, -0.29, 0.29, 0.95
91, -4585.95, 184352.80, -51009.52, -55432.37, -47354.23, 18899.36, -9059.18, 10049.59, 0.00, 0.00, 0.00
92, -4779.67, 183662.56, -51501.97, -58493.26, -44083.02, 20824.02, -9286.43, 10736.21, 0.00, 0.00, 0.00
93, 769.66, 139678.08, -48530.04, -47459.12, -24992.74, 23573.58, -11296.57, 16810.84, 0.00, 0.00, 0.00
94, 1116.76, 137895.42, -47900.32, -43855.37, -27676.67, 21806.90, -10987.11, 16411.39, 0.00, 0.00, 0.00
95, -3810.61, 177890.22, -50488.27, -53409.47, -44934.80, 19066.66, -9340.15, 10856.98, -0.29, 0.28, 0.95
96, -5415.74, 187500.00, -51732.71, -59254.94, -46872.61, 20213.22, -8892.35, 9969.41, 0.00, 0.00, 0.00
97, -149.69, 146963.36, -49037.20, -49538.93, -27468.48, 23392.20, -11049.74, 15976.62, 0.00, 0.00, 0.00
98, 1594.42, 133723.69, -47685.68, -43295.48, -25377.16, 22367.81, -11152.76, 17125.84, 0.00, 0.00, 0.00
99, -2930.22, 171155.66, -49957.58, -51295.38, -42013.43, 19384.91, -9660.40, 11836.63, 0.00, 0.00, 0.00
100, -5777.88, 187500.00, -51786.13, -59398.64, -48768.13, 19674.18, -8625.67, 9474.59, -0.29, 0.28, 0.95
101, -1220.34, 154571.03, -49584.55, -51774.26, -30684.41, 23030.30, -10697.46, 14928.08, 0.00, 0.00, 0.00
102, 1841.02, 130818.68, -47622.36, -43287.64, -23759.72, 22846.28, -11302.65, 17579.49, 0.00, 0.00, 0.00
103, -2014.63, 163401.14, -49469.68, -49264.52, -38844.69, 19796.89, -10040.25, 12866.09, 0.00, 0.00, 0.00
104, -5860.94, 187500.00, -51755.29, -58963.18, -49678.72, 19254.31, -8579.22, 9253.04, 0.00, 0.00, 0.00
105, -2373.49, 163467.08, -50164.38, -54015.98, -34423.05, 22523.56, -10284.26, 13745.16, 0.00, 0.00, 0.00
106, 1841.58, 130875.18, -47657.98, -43789.95, -22886.06, 23254.49, -11349.25, 17799.86, -0.28, 0.27, 0.96
107, -1081.27, 155618.34, -48940.06, -47336.16, -35502.64, 20316.33, -10336.25, 13974.69, 0.00, 0.00, 0.00
108, -5640.04, 187500.00, -51530.11, -57908.81, -49494.47, 19000.79, -8625.40, 9384.47, 0.00, 0.00, 0.00
109, -3504.57, 172411.14, -50735.48, -56059.11, -38351.95, 21899.86, -9850.84, 12528.51, 0.00, 0.00, 0.00
110, 1563.26, 132486.19, -47836.66, -44829.46, -22918.16, 23520.14, -11339.20, 17707.12, 0.00, 0.00, 0.00
111, -204.29, 148212.16, -48427.98, -45661.33, -32223.66, 20895.71, -10563.86, 15055.44, -0.29, 0.27, 0.95
112, -5145.64, 187143.22, -51144.25, -56352.61, -48302.09, 18930.72, -8748.32, 9842.75, 0.00, 0.00, 0.00
113, -4487.38, 180029.80, -51180.84, -57679.03, -42060.93, 21248.26, -9359.46, 11445.93, 0.00, 0.00, 0.00
114, 1022.66, 136509.20, -48148.25, -46334.70, -23896.63, 23628.45, -11228.26, 17328.44, 0.00, 0.00, 0.00
115, 571.89, 141226.05, -47966.06, -44333.27, -29163.57, 21499.83, -10730.07, 16065.03, 0.00, 0.00, 0.00
116, -4456.24, 181566.33, -50639.98, -54467.71, -46280.70, 18994.60, -8991.55, 10527.09, -0.29, 0.27, 0.95
117, -5262.76, 185603.42, -51452.04, -58761.44, -45248.73, 20597.94, -8908.26, 10531.74, 0.00, 0.00, 0.00
118, 230.09, 141811.70, -48596.71, -48226.50, -25850.02, 23550.22, -11037.78, 16634.12, 0.00, 0.00, 0.00
119, 1164.88, 135357.31, -47695.54, -43503.11, -26571.78, 22075.57, -10946.52, 16871.95, 0.00, 0.00, 0.00
120, -3633.21, 174786.33, -50161.07, -52419.22, -43655.35, 19226.79, -9350.11, 11393.49, 0.00, 0.00, 0.00
121, -5797.77, 187500.00, -51661.38, -59291.66, -47712.70, 20003.80, -8626.05, 9840.78, -0.29, 0.27, 0.95
122, -777.53, 150280.86, -49171.20, -50412.10, -28697.11, 23294.07, -10777.14, 15675.37, 0.00, 0.00, 0.00
123, 1549.67, 132485.95, -47553.49, -43168.86, -24530.41, 22618.36, -11109.04, 17481.66, 0.00, 0.00, 0.00
124, -2729.01, 167847.53, -49679.28, -50334.27, -40608.87, 19589.04, -9720.13, 12393.06, 0.00, 0.00, 0.00
125, -6042.01, 187500.00, -51751.62, -59191.06, -49212.32, 19528.00, -8478.44, 9468.22, 0.00, 0.00, 0.00
126, -1920.15, 158931.73, -49824.34, -52721.75, -32225.45, 22843.91, -10474.34, 14515.40, 0.00, 0.00, 0.00
127, 1677.97, 130978.36, -47569.47, -43408.90, -23239.35, 23055.55, -11265.55, 17802.70, -0.29, 0.27, 0.94
128, -1797.12, 160478.02, -49166.80, -48329.97, -37335.44, 20051.10, -10073.57, 13451.97, 0.00, 0.00, 0.00
129, -5973.10, 187500.00, -51576.80, -58445.50, -49608.00, 19186.83, -8428.15, 9412.90, 0.00, 0.00, 0.00
130, -3048.98, 167913.41, -50350.95, -54842.17, -36025.27, 22303.08, -9982.04, 13340.21, 0.00, 0.00, 0.00
131, 1584.18, 131266.97, -47607.76, -44094.83, -22687.56, 23418.39, -11228.04, 17921.56, 0.00, 0.00, 0.00
132, -865.08, 152423.20, -48614.68, -46476.09, -33971.50, 20595.70, -10314.91, 14564.66, -0.29, 0.27, 0.95
133, -5632.75, 187500.00, -51299.24, -57186.46, -49002.33, 18987.49, -8546.73, 9659.98, 0.00, 0.00, 0.00
134, -4137.17, 175988.80, -50906.75, -56750.47, -39939.62, 21650.21, -9550.43, 12141.60, 0.00, 0.00, 0.00
135, 1163.39, 134034.64, -47930.45, -45405.04, -23191.43, 23596.13, -11259.96, 17651.31, 0.00, 0.00, 0.00
136, -45.87, 144813.59, -48169.33, -45001.59, -30816.62, 21168.76, -10587.02, 15580.69, 0.00, 0.00, 0.00
137, -5078.18, 184994.45, -50941.99, -55554.63, -47512.01, 18943.97, -8826.66, 10153.95, -0.29, 0.27, 0.95
138, -5054.02, 183089.84, -51324.05, -58194.64, -43504.54, 20990.95, -9112.05, 11091.90, 0.00, 0.00, 0.00
139, 499.94, 139278.16, -48338.93, -47122.93, -24631.49, 23622.13, -11149.41, 17105.25, 0.00, 0.00, 0.00
140, 634.39, 139275.23, -47869.93, -43950.14, -28015.85, 21745.50, -10849.22, 16455.53, 0.00, 0.00, 0.00
141, -4329.15, 179560.61, -50480.21, -53609.45, -45231.75, 19091.63, -9140.59, 10918.09, 0.00, 0.00, 0.00
142, -5736.78, 187500.00, -51584.00, -59054.67, -46421.58, 20362.64, -8726.39, 10269.98, -0.29, 0.27, 0.95
143, -401.75, 146356.06, -48843.05, -49180.61, -27008.57, 23457.10, -10925.00, 16281.32, 0.00, 0.00, 0.00
144, 1149.89, 135115.86, -47618.98, -43318.86, -25627.62, 22315.04, -11008.46, 17197.19, 0.00, 0.00, 0.00
145, -3453.21, 172841.25, -49946.22, -51516.90, -42380.47, 19379.36, -9473.47, 11862.83, 0.00, 0.00, 0.00
146, -6135.35, 187500.00, -51681.55, -59297.54, -48464.14, 19810.44, -8458.68, 9724.08, 0.00, 0.00, 0.00
147, -1467.70, 153948.84, -49416.13, -51428.75, -30166.23, 23106.29, -10617.50, 15226.95, -0.29, 0.28, 0.95
148, 1434.29, 131800.25, -47512.16, -43228.47, -23890.13, 22807.03, -11151.44, 17684.90, 0.00, 0.00, 0.00
149, -2527.27, 164639.45, -49413.02, -49456.45, -39207.53, 19769.31, -9838.59, 12881.35, 0.00, 0.00, 0.00
150, -6242.95, 187500.00, -51626.07, -58923.27, -49496.86, 19361.68, -8368.56, 9449.62, 0.00, 0.00, 0.00
151, -2608.67, 163022.52, -50013.17, -53674.34, -33858.91, 22619.72, -10207.30, 14048.56, 0.00, 0.00, 0.00
152, 1476.38, 131227.73, -47542.36, -43667.30, -22909.62, 23222.52, -11220.06, 17928.98, 0.00, 0.00, 0.00
153, -1583.35, 157046.09, -48894.15, -47517.73, -35889.77, 20272.45, -10147.56, 13975.92, -0.29, 0.28, 0.96
154, -6057.81, 187500.00, -51450.07, -57978.25, -49495.84, 19074.15, -8427.19, 9515.72, 0.00, 0.00, 0.00
155, -3725.37, 171142.89, -50553.00, -55731.52, -37751.47, 22019.84, -9748.33, 12844.52, 0.00, 0.00, 0.00
156, 1243.29, 132493.56, -47722.78, -44646.54, -22827.86, 23503.08, -11230.92, 17864.43, 0.00, 0.00, 0.00
157, -694.27, 149562.64, -48413.92, -45840.72, -32624.20, 20836.88, -10422.91, 15039.57, 0.00, 0.00, 0.00
158, -5605.06, 187500.00, -51106.19, -56519.40, -48460.46, 18962.82, -8589.26, 9893.98, -0.29, 0.28, 0.96
159, -4747.67, 179164.16, -51054.49, -57448.38, -41558.55, 21359.84, -9300.27, 11699.95, 0.00, 0.00, 0.00
160, 735.98, 135979.25, -48022.95, -46111.76, -23700.34, 23634.51, -11147.84, 17504.86, 0.00, 0.00, 0.00
161, 105.81, 142086.23, -47947.20, -44478.83, -29540.45, 21433.31, -10612.52, 16044.57, 0.00, 0.00, 0.00
162, -4949.55, 182576.55, -50697.09, -54723.59, -46602.40, 18993.71, -8894.85, 10501.81, 0.00, 0.00, 0.00
163, -5562.81, 185451.28, -51409.26, -58644.98, -44871.37, 20711.42, -8885.60, 10731.61, -0.29, 0.27, 0.96
164, -34.24, 141995.94, -48491.57, -47995.43, -25563.31, 23580.82, -11002.51, 16824.56, 0.00, 0.00, 0.00
165, 716.66, 137235.75, -47694.02, -43623.81, -26918.54, 22008.80, -10860.09, 16852.95, 0.00, 0.00, 0.00
166, -4131.59, 176394.06, -50184.00, -52691.80, -44029.76, 19209.83, -9221.57, 11355.20, 0.00, 0.00, 0.00
167, -6116.42, 187500.00, -51573.81, -59217.41, -47408.20, 20112.95, -8530.16, 10023.95, 0.00, 0.00, 0.00
168, -1003.17, 149350.63, -49021.66, -50137.82, -28284.43, 23337.21, -10732.73, 15894.53, -0.29, 0.27, 0.95
169, 1148.75, 133043.34, -47496.63, -43211.82, -24784.71, 22549.80, -11016.55, 17489.70, 0.00, 0.00, 0.00
170, -3212.77, 169119.34, -49653.93, -50585.39, -41013.82, 19553.64, -9569.92, 12345.02, 0.00, 0.00, 0.00
171, -6366.49, 187500.00, -51568.85, -59148.17, -48982.75, 19625.08, -8300.07, 9627.23, 0.00, 0.00, 0.00
172, -2066.42, 157687.73, -49500.86, -52311.02, -31604.00, 22962.48, -10271.77, 14848.29, 0.00, 0.00, 0.00
173, 1394.77, 130981.40, -47308.96, -43229.19, -23226.08, 23060.09, -10981.43, 17980.48, -0.29, 0.27, 0.95
174, -2203.08, 161134.13, -48995.11, -48434.71, -37620.38, 20049.54, -9755.78, 13524.77, 0.00, 0.00, 0.00
175, -6290.36, 187500.00, -51407.71, -58408.62, -49464.61, 19296.01, -8160.33, 9610.45, 0.00, 0.00, 0.00
176, -3199.05, 166817.77, -50111.76, -54469.23, -35416.09, 22430.78, -9823.70, 13681.14, 0.00, 0.00, 0.00
177, 1318.82, 131305.67, -47436.84, -43913.75, -22632.95, 23418.59, -11050.75, 18102.21, 0.00, 0.00, 0.00
178, -1284.87, 153593.58, -48531.20, -46616.73, -34323.32, 20572.48, -10098.52, 14601.75, 0.00, 0.00, 0.00
179, -6000.93, 187500.00, -51196.94, -57242.19, -49024.91, 19072.88, -8314.38, 9795.61, -0.28, 0.27, 0.95
180, -4307.83, 175386.22, -50702.63, -56422.86, -39348.21, 21788.30, -9415.63, 12465.08, 0.00, 0.00, 0.00
181, 931.84, 134220.70, -47765.14, -45180.61, -23034.12, 23608.87, -11111.43, 17857.32, 0.00, 0.00, 0.00
182, -466.75, 146649.19, -48155.80, -45157.86, -31203.21, 21119.58, -10447.36, 15585.22, 0.00, 0.00, 0.00
183, -5484.72, 185947.94, -50884.66, -55688.63, -47674.95, 18996.79, -8627.66, 10227.89, 0.00, 0.00, 0.00
184, -5260.64, 182458.88, -51139.47, -57936.55, -42986.18, 21120.16, -8985.16, 11370.13, -0.28, 0.28, 0.96
185, 300.16, 138991.72, -48140.83, -46852.23, -24353.43, 23648.97, -11008.50, 17337.87, 0.00, 0.00, 0.00
186, 255.39, 140656.95, -47779.33, -44020.80, -28306.52, 21704.86, -10663.77, 16503.75, 0.00, 0.00, 0.00
187, -4740.83, 180411.63, -50411.12, -53759.54, -45463.16, 19119.41, -8917.14, 10971.08, 0.00, 0.00, 0.00
188, -5968.43, 187500.00, -51424.77, -58864.41, -45990.97, 20486.36, -8581.71, 10516.65, 0.00, 0.00, 0.00
189, -562.17, 145621.86, -48632.75, -48864.53, -26595.87, 23505.34, -10804.70, 16546.41, -0.28, 0.28, 0.95
190, 806.88, 136046.64, -47506.73, -43332.48, -25851.33, 22272.91, -10833.38, 17269.74, 0.00, 0.00, 0.00
191, -3853.93, 173646.58, -49818.44, -51644.42, -42633.07, 19399.28, -9200.78, 11925.88, 0.00, 0.00, 0.00
192, -6373.98, 187500.00, -51461.07, -59104.61, -48076.57, 19947.21, -8220.14, 9975.07, 0.00, 0.00, 0.00
193, -1578.52, 153212.98, -49137.07, -51011.66, -29586.56, 23216.02, -10419.24, 15576.77, 0.00, 0.00, 0.00
194, 1161.02, 132371.70, -47326.71, -43124.58, -23967.35, 22800.12, -10921.42, 17844.27, -0.29, 0.28, 0.95
195, -2914.71, 165918.20, -49311.19, -49574.40, -39502.84, 19787.31, -9575.62, 12954.60, 0.00, 0.00, 0.00
196, -6527.65, 187500.00, -51468.76, -58826.48, -49268.25, 19485.83, -8151.66, 9658.64, 0.00, 0.00, 0.00
197, -2713.19, 161900.09, -49719.80, -53240.33, -33205.44, 22759.62, -10011.52, 14418.66, 0.00, 0.00, 0.00
198, 1233.32, 131469.33, -47358.74, -43500.61, -22893.08, 23228.38, -11015.74, 18115.44, 0.00, 0.00, 0.00
199, -1963.38, 158244.67, -48791.98, -47618.36, -36190.20, 20286.29, -9894.74, 14051.78, 0.00, 0.00, 0.00
200, -6372.57, 187500.00, -51345.42, -57933.93, -49390.63, 19204.19, -8182.91, 9708.59, -0.29, 0.28, 0.95
201, -3868.10, 170735.02, -50364.27, -55368.09, -37147.28, 22162.51, -9619.77, 13186.88, 0.00, 0.00, 0.00
202, 1021.39, 132701.45, -47546.54, -44442.06, -22710.98, 23517.48, -11076.00, 18074.65, 0.00, 0.00, 0.00
203, -1078.99, 150756.03, -48341.75, -45947.99, -32944.88, 20818.59, -10234.51, 15087.56, 0.00, 0.00, 0.00
204, -5967.54, 187500.00, -51041.66, -56578.97, -48526.17, 19045.27, -8382.15, 10007.61, 0.00, 0.00, 0.00
205, -4888.59, 178335.78, -50791.86, -57085.64, -40922.46, 21525.73, -9113.75, 12046.65, -0.30, 0.28, 0.95
206, 571.27, 135717.16, -47787.22, -45797.88, -23419.24, 23678.95, -10952.11, 17767.04, 0.00, 0.00, 0.00
207, -259.46, 143820.81, -47908.75, -44557.64, -29847.20, 21405.64, -10455.90, 16088.38, 0.00, 0.00, 0.00
208, -5310.15, 183912.52, -50629.20, -54804.35, -46736.65, 19080.21, -8641.83, 10622.29, 0.00, 0.00, 0.00
209, -5729.06, 185081.11, -51209.97, -58344.11, -44322.34, 20885.69, -8683.29, 11071.40, 0.00, 0.00, 0.00
210, -169.56, 141409.84, -48238.82, -47648.44, -25164.20, 23642.18, -10816.25, 17128.83, -0.30, 0.28, 0.95
211, 418.16, 137989.78, -47504.92, -43577.61, -27073.15, 22007.10, -10597.19, 16992.06, 0.00, 0.00, 0.00
212, -4476.70, 177583.23, -50038.54, -52745.55, -44195.36, 19274.40, -8898.50, 11490.74, 0.00, 0.00, 0.00
213, -6306.68, 187500.00, -51359.73, -58971.59, -46950.78, 20272.00, -8299.98, 10332.45, 0.00, 0.00, 0.00
214, -1100.78, 148491.70, -48737.60, -49718.59, -27749.29, 23445.68, -10518.86, 16257.94, 0.00, 0.00, 0.00
215, 877.86, 133823.91, -47324.00, -43126.82, -24893.74, 22551.21, -10775.02, 17655.40, -0.29, 0.28, 0.95
216, -3573.84, 170266.28, -49556.12, -50684.01, -41261.07, 19595.95, -9292.36, 12453.12, 0.00, 0.00, 0.00
217, -6619.38, 187500.00, -51472.87, -59027.36, -48716.54, 19762.58, -8119.02, 9863.42, 0.00, 0.00, 0.00
218, -2208.71, 157488.89, -49388.12, -52001.51, -31130.12, 23054.68, -10214.28, 15137.07, 0.00, 0.00, 0.00
219, 1098.03, 132166.94, -47278.72, -43220.11, -23383.81, 23026.10, -10914.40, 18071.70, 0.00, 0.00, 0.00
220, -2619.33, 162716.17, -49018.20, -48656.82, -38022.04, 20027.12, -9637.92, 13518.25, -0.29, 0.28, 0.95
221, -6615.65, 187500.00, -51375.33, -58438.66, -49401.11, 19384.79, -8042.52, 9737.94, 0.00, 0.00, 0.00
222, -3349.88, 166206.03, -49964.17, -54180.45, -34903.25, 22533.24, -9765.81, 13958.17, 0.00, 0.00, 0.00
223, 1078.78, 131479.73, -47281.00, -43794.51, -22623.32, 23412.11, -10911.14, 18255.99, 0.00, 0.00, 0.00
224, -1650.16, 154448.83, -48416.54, -46744.45, -34633.63, 20565.71, -9872.30, 14653.33, 0.00, 0.00, 0.00
225, -6314.64, 187500.00, -51047.85, -57268.70, -48998.80, 19152.79, -8088.45, 9929.07, 0.00, 0.00, 0.00
226, -4420.93, 173989.19, -50406.80, -56066.18, -38738.23, 21927.35, -9224.72, 12792.33, -0.30, 0.27, 0.95
227, 779.27, 133612.89, -47494.26, -44894.06, -22813.69, 23660.17, -10861.94, 18119.62, 0.00, 0.00, 0.00
228, -785.57, 147717.38, -48017.04, -45199.45, -31460.41, 21130.13, -10179.63, 15687.08, 0.00, 0.00, 0.00
229, -5802.54, 186742.05, -50786.76, -55744.78, -47760.36, 19089.87, -8355.77, 10376.84, 0.00, 0.00, 0.00
230, -5401.66, 181788.20, -50953.46, -57659.21, -42454.43, 21268.80, -8832.51, 11689.00, 0.00, 0.00, 0.00
231, 157.83, 138732.56, -47941.16, -46567.33, -24067.93, 23703.13, -10842.05, 17605.93, -0.29, 0.28, 0.95
232, -39.58, 141651.92, -47626.67, -44020.02, -28518.46, 21713.56, -10407.67, 16625.03, 0.00, 0.00, 0.00
233, -5052.19, 181324.55, -50265.85, -53816.27, -45601.29, 19198.87, -8595.16, 11114.25, 0.00, 0.00, 0.00
234, -6115.82, 187500.00, -51227.76, -58615.70, -45512.69, 20648.07, -8375.78, 10831.63, 0.00, 0.00, 0.00
235, -656.38, 145061.16, -48389.22, -48505.61, -26169.00, 23596.15, -10605.37, 16874.40, 0.00, 0.00, 0.00
236, 527.81, 136567.20, -47394.79, -43321.43, -26048.63, 22259.34, -10635.00, 17379.55, -0.30, 0.27, 0.95
237, -4206.60, 174569.55, -49794.59, -51807.92, -42925.07, 19426.66, -8998.50, 11978.99, 0.00, 0.00, 0.00
238, -6585.07, 187500.00, -51367.08, -59007.06, -47785.10, 20075.69, -8089.45, 10199.73, 0.00, 0.00, 0.00
239, -1675.40, 152485.14, -48934.36, -50689.08, -29122.49, 23304.35, -10299.93, 15880.60, 0.00, 0.00, 0.00
240, 900.15, 133493.95, -47234.60, -43094.09, -24130.65, 22780.09, -10771.22, 17952.16, 0.00, 0.00, 0.00
241, -3265.23, 167845.56, -49273.21, -49750.98, -39836.17, 19801.03, -9364.87, 13003.42, -0.29, 0.28, 0.95
242, -6744.28, 187500.00, -51339.21, -58755.38, -49060.16, 19628.43, -7920.43, 9898.40, 0.00, 0.00, 0.00
243, -2801.48, 161184.44, -49551.22, -52926.61, -32698.16, 22855.11, -9920.98, 14724.95, 0.00, 0.00, 0.00
244, 1014.97, 132114.72, -47231.49, -43414.35, -22955.64, 23208.78, -10875.49, 18251.41, 0.00, 0.00, 0.00
245, -2309.99, 160021.23, -48748.86, -47792.86, -36554.69, 20270.19, -9708.19, 14075.97, 0.00, 0.00, 0.00
246, -6629.95, 187500.00, -51234.91, -57949.38, -49330.99, 19313.11, -7957.82, 9879.47, -0.29, 0.29, 0.95
247, -3938.13, 170379.39, -50138.40, -55038.11, -36569.49, 22294.61, -9471.17, 13523.54, 0.00, 0.00, 0.00
248, 866.26, 133623.17, -47364.21, -44255.16, -22622.98, 23531.58, -10887.18, 18284.24, 0.00, 0.00, 0.00
249, -1391.31, 152478.08, -48258.35, -46068.62, -33271.31, 20803.15, -10010.16, 15146.35, 0.00, 0.00, 0.00
250, -6236.85, 187500.00, -50946.42, -56640.97, -48569.96, 19135.62, -8128.23, 10159.63, 0.00, 0.00, 0.00
251, -4988.93, 178271.05, -50639.77, -56820.52, -40407.55, 21656.52, -8986.88, 12362.86, 0.00, 0.00, 0.00
252, 426.02, 136229.86, -47619.47, -45588.57, -23236.92, 23699.82, -10806.82, 17997.18, -0.29, 0.28, 0.95
253, -566.10, 145573.73, -47816.35, -44659.05, -30154.27, 21379.02, -10249.77, 16160.51, 0.00, 0.00, 0.00
254, -5611.54, 185154.56, -50524.95, -54916.54, -46891.93, 19140.54, -8375.67, 10747.54, 0.00, 0.00, 0.00
255, -5838.66, 184246.45, -50958.89, -58085.10, -43809.44, 21022.78, -8479.65, 11394.43, 0.00, 0.00, 0.00
0, -258.14, 140674.61, -47982.11, -47308.14, -24798.23, 23704.70, -10609.75, 17428.37, 0.00, 0.00, 0.00
1, 145.42, 138784.86, -47388.65, -43593.86, -27312.13, 21981.33, -10384.46, 17087.10, -0.30, 0.27, 0.95
2, -4791.52, 178304.39, -49968.13, -52899.80, -44449.62, 19306.12, -8660.00, 11571.12, 0.00, 0.00, 0.00
3, -6457.53, 187500.00, -51213.95, -58818.82, -46578.24, 20409.13, -8130.13, 10613.10, 0.00, 0.00, 0.00
4, -1199.13, 148358.22, -48583.91, -49415.77, -27351.40, 23511.78, -10421.63, 16541.94, 0.00, 0.00, 0.00
5, 605.75, 135089.41, -47257.42, -43131.55, -25108.41, 22521.33, -10633.53, 17740.80, 0.00, 0.00, 0.00
6, -3916.27, 171986.44, -49532.34, -50894.03, -41608.80, 19597.07, -9103.87, 12484.34, -0.29, 0.27, 0.95
7, -6806.58, 187500.00, -51354.61, -58967.27, -48475.01, 19896.94, -7930.71, 10108.53, 0.00, 0.00, 0.00
8, -2277.22, 156711.98, -49161.90, -51651.17, -30605.51, 23156.09, -10079.88, 15469.28, 0.00, 0.00, 0.00
9, 886.20, 132694.05, -47093.92, -43087.77, -23427.33, 23027.57, -10686.99, 18232.50, 0.00, 0.00, 0.00
10, -2932.12, 164407.11, -48918.78, -48783.64, -38319.81, 20041.27, -9362.41, 13589.08, 0.00, 0.00, 0.00
11, -6819.03, 187500.00, -51240.39, -58414.32, -49249.72, 19520.61, -7781.40, 9974.78, -0.29, 0.27, 0.94
12, -3385.26, 164978.20, -49665.62, -53773.73, -34259.81, 22680.63, -9551.79, 14355.34, 0.00, 0.00, 0.00
13, 906.72, 131829.56, -47094.34, -43563.57, -22548.97, 23429.97, -10679.57, 18464.31, 0.00, 0.00, 0.00
14, -1970.55, 155986.52, -48363.94, -46864.92, -34968.90, 20547.91, -9645.67, 14700.94, 0.00, 0.00, 0.00
15, -6562.23, 187500.00, -50979.84, -57341.70, -49020.10, 19245.23, -7855.23, 10094.70, 0.00, 0.00, 0.00
16, -4486.22, 173258.06, -50225.20, -55750.81, -38164.20, 22071.74, -9087.64, 13149.37, 0.00, 0.00, 0.00
17, 623.41, 133332.38, -47344.14, -44645.30, -22657.34, 23681.76, -10710.13, 18331.49, -0.29, 0.28, 0.94
18, -1092.80, 148273.83, -47930.66, -45271.54, -31753.00, 21109.30, -9960.47, 15737.01, 0.00, 0.00, 0.00
19, -6083.47, 187044.95, -50686.96, -55874.24, -47886.00, 19126.45, -8141.31, 10458.89, 0.00, 0.00, 0.00
20, -5494.71, 180847.38, -50773.57, -57414.34, -41943.96, 21396.21, -8720.60, 11971.48, 0.00, 0.00, 0.00
21, 62.94, 137509.73, -47694.33, -46176.78, -23705.46, 23788.42, -10629.80, 17893.60, 0.00, 0.00, 0.00
22, -322.25, 141959.05, -47522.47, -43986.76, -28737.06, 21712.06, -10169.60, 16700.13, -0.29, 0.28, 0.94
23, -5348.35, 182061.30, -50212.95, -53962.94, -45807.35, 19247.44, -8365.32, 11193.49, 0.00, 0.00, 0.00
24, -6221.43, 187024.89, -51064.82, -58420.06, -45057.96, 20801.05, -8217.53, 11137.11, 0.00, 0.00, 0.00
25, -749.68, 144456.44, -48225.94, -48120.04, -25747.33, 23690.01, -10475.99, 17164.26, 0.00, 0.00, 0.00
26, 254.90, 137399.67, -47313.75, -43234.17, -26201.72, 22268.95, -10434.26, 17470.48, 0.00, 0.00, 0.00
27, -4520.19, 176233.19, -49753.57, -51969.37, -43193.49, 19455.31, -8770.24, 12033.53, -0.29, 0.27, 0.94
28, -6716.90, 187500.00, -51193.36, -58921.70, -47456.51, 20203.12, -7910.21, 10465.62, 0.00, 0.00, 0.00
29, -1728.71, 151871.11, -48743.70, -50312.99, -28623.17, 23407.71, -10182.16, 16196.63, 0.00, 0.00, 0.00
30, 666.06, 133918.33, -47122.80, -42967.96, -24231.10, 22785.12, -10580.09, 18070.96, 0.00, 0.00, 0.00
31, -3572.19, 168454.45, -49193.71, -49929.01, -40160.63, 19790.48, -9135.76, 13038.73, 0.00, 0.00, 0.00
32, -6909.59, 187500.00, -51238.18, -58867.39, -48967.80, 19700.29, -7783.91, 10091.88, -0.29, 0.28, 0.95
33, -2848.71, 159983.45, -49332.22, -52601.66, -32185.88, 22974.64, -9811.01, 15068.56, 0.00, 0.00, 0.00
34, 782.87, 131800.31, -47114.77, -43120.40, -22915.25, 23266.51, -10666.88, 18415.62, 0.00, 0.00, 0.00
35, -2641.69, 160343.19, -48676.22, -47841.92, -36794.03, 20281.06, -9464.15, 14108.15, 0.00, 0.00, 0.00
36, -6826.45, 187500.00, -51069.87, -58062.21, -49266.48, 19358.53, -7766.52, 10024.40, 0.00, 0.00, 0.00
37, -3965.98, 168612.41, -49862.16, -54691.74, -35976.94, 22432.72, -9315.56, 13880.95, -0.29, 0.27, 0.94
38, 681.77, 132323.53, -47188.87, -43821.91, -22405.34, 23628.39, -10644.82, 18509.77, 0.00, 0.00, 0.00
39, -1709.33, 153027.28, -48174.02, -45991.73, -33430.45, 20844.97, -9733.92, 15216.55, 0.00, 0.00, 0.00
40, -6443.61, 187500.00, -50780.23, -56731.32, -48552.79, 19204.28, -7861.51, 10326.17, 0.00, 0.00, 0.00
41, -5000.33, 177257.00, -50361.59, -56529.79, -39812.95, 21804.15, -8817.56, 12745.37, 0.00, 0.00, 0.00
42, 298.49, 135679.42, -47455.64, -45125.24, -22924.96, 23810.82, -10606.68, 18272.48, 0.00, 0.00, 0.00
43, -863.51, 146256.64, -47738.45, -44525.01, -30295.20, 21423.45, -9995.28, 16242.05, -0.29, 0.27, 0.95
44, -5852.96, 185567.38, -50429.31, -55079.64, -47018.73, 19170.84, -8157.96, 10838.32, 0.00, 0.00, 0.00
45, -5885.75, 184255.69, -50814.72, -57982.88, -43389.68, 21138.02, -8404.72, 11701.34, 0.00, 0.00, 0.00
46, -370.35, 141204.70, -47884.41, -46956.57, -24495.70, 23791.22, -10530.60, 17688.39, 0.00, 0.00, 0.00
47, -168.06, 140447.83, -47394.91, -43536.64, -27536.72, 21986.90, -10242.35, 17121.19, 0.00, 0.00, 0.00
48, -5079.32, 180150.50, -49940.21, -53154.66, -44732.34, 19310.41, -8482.96, 11605.79, -0.28, 0.28, 0.95
49, -6520.36, 187500.00, -51037.37, -58832.74, -46280.58, 20515.32, -7994.57, 10915.21, 0.00, 0.00, 0.00
50, -1255.12, 148075.47, -48382.85, -49100.59, -26976.41, 23590.16, -10312.40, 16852.92, 0.00, 0.00, 0.00
51, 345.09, 135947.69, -47160.55, -43018.75, -25268.69, 22521.17, -10436.03, 17834.99, 0.00, 0.00, 0.00
52, -4206.02, 173373.05, -49452.03, -51131.04, -41950.36, 19577.76, -8874.47, 12527.66, 0.00, 0.00, 0.00
53, -6903.67, 187500.00, -51174.14, -59096.76, -48333.57, 19959.44, -7773.24, 10368.15, -0.28, 0.28, 0.95
54, -2304.73, 156291.78, -48961.43, -51399.45, -30212.12, 23221.74, -10006.56, 15798.91, 0.00, 0.00, 0.00
55, 644.58, 133319.34, -47034.04, -42974.94, -23591.97, 23013.98, -10557.31, 18337.44, 0.00, 0.00, 0.00
56, -3244.96, 165480.63, -48861.36, -49022.09, -38725.71, 19999.58, -9182.25, 13599.61, 0.00, 0.00, 0.00
57, -6975.40, 187500.00, -51111.71, -58641.01, -49281.84, 19544.05, -7659.03, 10144.14, 0.00, 0.00, 0.00
58, -3429.34, 164660.94, -49538.04, -53615.95, -33891.93, 22736.42, -9567.60, 14639.70, -0.28, 0.28, 0.96
59, 687.18, 132308.67, -47054.71, -43417.12, -22630.45, 23427.76, -10604.70, 18579.08, 0.00, 0.00, 0.00
60, -2312.13, 157665.58, -48370.85, -47060.01, -35380.04, 20512.11, -9509.50, 14679.60, 0.00, 0.00, 0.00
61, -6777.92, 187500.00, -50901.29, -57582.43, -49132.02, 19283.10, -7705.05, 10218.99, 0.00, 0.00, 0.00
62, -4540.53, 173144.92, -50099.36, -55614.13, -37755.85, 22150.85, -9077.49, 13436.53, 0.00, 0.00, 0.00
63, 441.56, 134367.94, -47269.33, -44421.92, -22596.32, 23706.57, -10609.23, 18499.85, -0.29, 0.28, 0.96
64, -1407.53, 150057.52, -47855.73, -45320.71, -32040.31, 21106.10, -9731.46, 15779.64, 0.00, 0.00, 0.00
65, -6292.11, 187500.00, -50526.59, -56004.77, -47960.49, 19198.07, -7834.71, 10630.49, 0.00, 0.00, 0.00
66, -5503.65, 180460.67, -50531.46, -57182.89, -41414.29, 21533.29, -8533.65, 12359.53, 0.00, 0.00, 0.00
67, -53.13, 137815.00, -47594.71, -45881.63, -23492.78, 23822.80, -10523.60, 18126.57, 0.00, 0.00, 0.00
68, -638.19, 143475.84, -47538.07, -44048.18, -29058.29, 21676.70, -10037.70, 16713.09, 0.00, 0.00, 0.00
69, -5642.79, 183335.63, -50189.23, -54207.63, -46070.72, 19245.01, -8207.92, 11222.65, -0.30, 0.28, 0.96
70, -6297.31, 186463.77, -50880.30, -58334.74, -44665.91, 20884.75, -8126.00, 11394.67, 0.00, 0.00, 0.00
71, -810.34, 143499.48, -48032.67, -47805.95, -25407.18, 23742.54, -10354.27, 17428.32, 0.00, 0.00, 0.00
72, 14.66, 138017.23, -47186.74, -43184.15, -26409.61, 22260.50, -10205.65, 17561.03, 0.00, 0.00, 0.00
73, -4792.17, 176950.42, -49658.11, -52151.98, -43468.38, 19461.53, -8527.32, 12093.52, 0.00, 0.00, 0.00
74, -6818.42, 187500.00, -51063.00, -58883.23, -47165.02, 20301.71, -7780.69, 10716.25, -0.30, 0.28, 0.96
75, -1753.09, 151186.75, -48525.43, -49966.83, -28165.79, 23494.97, -10042.10, 16530.50, 0.00, 0.00, 0.00
76, 450.45, 134086.67, -47005.85, -42848.29, -24359.69, 22782.93, -10367.83, 18194.90, 0.00, 0.00, 0.00
77, -3879.30, 169517.88, -49164.70, -50105.81, -40491.95, 19782.05, -8937.59, 13056.84, 0.00, 0.00, 0.00
78, -7063.53, 187500.00, -51085.98, -58824.80, -48738.22, 19789.59, -7620.29, 10281.89, 0.00, 0.00, 0.00
79, -2855.26, 159828.61, -49147.95, -52263.29, -31653.73, 23064.65, -9712.93, 15382.67, -0.30, 0.27, 0.95
80, 633.98, 133143.03, -46995.05, -43050.00, -23014.90, 23244.32, -10500.31, 18566.28, 0.00, 0.00, 0.00
81, -2917.57, 162350.23, -48646.20, -48085.66, -37229.62, 20252.00, -9269.60, 14140.63, 0.00, 0.00, 0.00
82, -6999.94, 187500.00, -51000.35, -58124.79, -49232.87, 19469.51, -7562.09, 10231.62, 0.00, 0.00, 0.00
83, -3964.77, 168595.61, -49688.39, -54396.84, -35428.86, 22543.86, -9211.22, 14241.03, 0.00, 0.00, 0.00
84, 581.23, 132721.56, -47014.75, -43710.60, -22398.17, 23599.06, -10472.10, 18706.42, -0.29, 0.28, 0.95
85, -1960.96, 154064.11, -48076.34, -46198.28, -33849.55, 20792.31, -9504.14, 15262.51, 0.00, 0.00, 0.00
86, -6664.06, 187500.00, -50703.50, -56878.75, -48674.59, 19245.39, -7674.94, 10436.16, 0.00, 0.00, 0.00
87, -5037.99, 176686.47, -50248.20, -56300.31, -39328.65, 21902.43, -8765.15, 13027.42, 0.00, 0.00, 0.00
88, 204.56, 135609.77, -47343.63, -44980.14, -22835.19, 23792.63, -10506.95, 18454.90, 0.00, 0.00, 0.00
89, -1123.73, 147420.92, -47690.91, -44705.32, -30700.28, 21370.90, -9810.16, 16268.52, 0.00, 0.00, 0.00
90, -6106.14, 186714.31, -50397.86, -55233.57, -47224.90, 19236.38, -7928.50, 10943.39, -0.29, 0.28, 0.96
91, -5944.31, 183483.31, -50675.76, -57730.91, -42880.57, 21275.53, -8283.04, 12010.80, 0.00, 0.00, 0.00
92, -422.22, 140469.00, -47734.03, -46673.50, -24195.72, 23815.51, -10403.78, 17933.05, 0.00, 0.00, 0.00
93, -408.12, 141627.36, -47355.39, -43610.93, -27847.30, 21944.07, -10059.47, 17167.55, 0.00, 0.00, 0.00
94, -5360.73, 181187.09, -49929.75, -53305.09, -44986.24, 19348.88, -8262.39, 11662.98, 0.00, 0.00, 0.00
95, -6624.07, 187500.00, -50930.82, -58607.77, -45816.47, 20647.07, -7877.49, 11161.08, -0.29, 0.28, 0.96
96, -1270.90, 147127.73, -48206.95, -48702.46, -26490.53, 23669.74, -10167.38, 17140.14, 0.00, 0.00, 0.00
97, 165.36, 136501.55, -47035.20, -42919.08, -25390.84, 22528.28, -10179.30, 17953.32, 0.00, 0.00, 0.00
98, -4473.75, 174433.66, -49419.48, -51208.27, -42175.53, 19625.57, -8608.71, 12584.12, 0.00, 0.00, 0.00
99, -7032.06, 187500.00, -51076.42, -58886.88, -47925.63, 20108.39, -7604.78, 10589.72, 0.00, 0.00, 0.00
100, -2296.28, 155015.89, -48755.81, -50927.98, -29571.49, 23346.73, -9836.94, 16126.25, -0.29, 0.28, 0.95
101, 488.88, 133943.58, -46942.13, -42827.35, -23636.23, 23021.54, -10347.16, 18467.03, 0.00, 0.00, 0.00
102, -3527.44, 166997.20, -48875.80, -49131.14, -39015.97, 20024.32, -8961.86, 13628.82, 0.00, 0.00, 0.00
103, -7131.82, 187500.00, -51025.72, -58496.95, -48991.27, 19704.20, -7433.92, 10359.88, 0.00, 0.00, 0.00
104, -3384.70, 163688.95, -49264.56, -53101.86, -33137.67, 22904.23, -9337.02, 15038.07, 0.00, 0.00, 0.00
105, 602.96, 132600.28, -46848.79, -43159.63, -22522.09, 23455.32, -10324.70, 18799.74, -0.29, 0.28, 0.95
106, -2542.15, 158581.22, -48275.05, -47121.01, -35646.32, 20525.76, -9214.33, 14764.91, 0.00, 0.00, 0.00
107, -6942.27, 187500.00, -50821.74, -57533.07, -49019.30, 19408.11, -7451.51, 10413.88, 0.00, 0.00, 0.00
108, -4497.64, 171872.86, -49853.48, -55165.94, -37033.24, 22318.89, -8883.25, 13832.15, 0.00, 0.00, 0.00
109, 386.55, 133749.91, -47094.09, -44149.07, -22422.22, 23724.97, -10408.78, 18723.77, 0.00, 0.00, 0.00
110, -1662.77, 151298.86, -47876.00, -45475.27, -32428.63, 21063.48, -9575.24, 15783.50, -0.29, 0.28, 0.95
111, -6527.38, 187500.00, -50569.64, -56149.77, -48103.30, 19269.51, -7678.94, 10716.50, 0.00, 0.00, 0.00
112, -5530.04, 179855.16, -50407.81, -56922.83, -40859.21, 21665.70, -8461.86, 12655.58, 0.00, 0.00, 0.00
113, -108.00, 137511.48, -47453.15, -45631.89, -23267.05, 23845.71, -10394.92, 18340.03, 0.00, 0.00, 0.00
114, -861.93, 144423.64, -47458.34, -44130.99, -29367.80, 21648.24, -9821.60, 16762.71, 0.00, 0.00, 0.00
115, -5874.24, 184145.25, -50138.74, -54354.64, -46277.48, 19299.08, -7956.42, 11311.19, 0.00, 0.00, 0.00
116, -6346.53, 185992.28, -50776.03, -58125.04, -44187.63, 21033.73, -8003.13, 11691.08, -0.29, 0.28, 0.95
117, -833.76, 143219.11, -47899.88, -47476.20, -25037.51, 23801.32, -10236.47, 17695.07, 0.00, 0.00, 0.00
118, -213.15, 139309.98, -47191.48, -43236.81, -26710.78, 22219.06, -10054.98, 17592.16, 0.00, 0.00, 0.00
119, -5064.10, 178306.52, -49666.47, -52353.57, -43782.08, 19488.40, -8307.85, 12125.58, 0.00, 0.00, 0.00
120, -6902.87, 187500.00, -50954.42, -58719.62, -46759.98, 20448.98, -7619.53, 10977.05, 0.00, 0.00, 0.00
121, -1768.00, 150669.13, -48414.91, -49596.44, -27684.96, 23576.17, -9947.69, 16802.90, -0.29, 0.28, 0.95
122, 248.95, 135456.58, -46993.11, -42809.78, -24550.62, 22760.42, -10207.84, 18257.80, 0.00, 0.00, 0.00
123, -4158.85, 171492.81, -49181.14, -50284.43, -40825.26, 19807.51, -8696.33, 13087.84, 0.00, 0.00, 0.00
124, -7199.16, 187500.00, -51057.29, -58743.36, -48465.89, 19948.42, -7431.69, 10520.54, 0.00, 0.00, 0.00
125, -2858.10, 158688.16, -49005.15, -51866.86, -31055.45, 23178.06, -9602.17, 15697.72, 0.00, 0.00, 0.00
126, 466.66, 133071.13, -46926.55, -42925.61, -23080.16, 23222.30, -10329.95, 18660.93, -0.29, 0.28, 0.96
127, -3208.95, 163391.30, -48650.80, -48265.57, -37598.52, 20231.41, -9062.98, 14127.46, 0.00, 0.00, 0.00
128, -7194.11, 187500.00, -50971.27, -58163.98, -49141.23, 19547.54, -7423.39, 10341.77, 0.00, 0.00, 0.00
129, -3981.63, 167397.97, -49585.49, -54047.19, -34833.16, 22657.65, -9167.05, 14507.38, 0.00, 0.00, 0.00
130, 435.05, 133219.72, -46999.95, -43560.42, -22412.36, 23590.46, -10383.39, 18804.95, 0.00, 0.00, 0.00
131, -2263.56, 156007.89, -48147.13, -46415.70, -34291.42, 20759.54, -9372.62, 15218.14, -0.29, 0.28, 0.95
132, -6891.36, 187500.00, -50730.88, -56996.72, -48739.36, 19343.36, -7496.73, 10540.95, 0.00, 0.00, 0.00
133, -5053.91, 175457.52, -50108.50, -55969.73, -38703.39, 22049.77, -8668.57, 13342.11, 0.00, 0.00, 0.00
134, 131.41, 135230.08, -47193.83, -44699.04, -22635.28, 23821.17, -10335.29, 18655.68, 0.00, 0.00, 0.00
135, -1383.30, 148738.56, -47673.97, -44830.56, -31067.22, 21332.48, -9617.37, 16270.68, 0.00, 0.00, 0.00
136, -6344.54, 187150.09, -50350.79, -55385.09, -47380.18, 19281.38, -7704.53, 11007.27, -0.29, 0.28, 0.95
137, -5982.24, 182732.13, -50546.84, -57470.73, -42318.87, 21404.16, -8189.77, 12272.38, 0.00, 0.00, 0.00
138, -461.94, 139871.78, -47597.14, -46336.26, -23874.68, 23871.24, -10254.91, 18165.13, 0.00, 0.00, 0.00
139, -641.52, 142360.92, -47321.32, -43667.24, -28152.54, 21913.07, -9859.44, 17193.95, 0.00, 0.00, 0.00
140, -5618.49, 181951.47, -49910.35, -53491.68, -45247.21, 19382.72, -8020.57, 11702.08, 0.00, 0.00, 0.00
141, -6691.06, 187500.00, -50843.89, -58417.22, -45353.34, 20803.44, -7737.77, 11425.50, 0.00, 0.00, 0.00
142, -1284.73, 146514.52, -48077.73, -48305.23, -26021.61, 23759.97, -10035.40, 17418.85, -0.29, 0.28, 0.95
143, -62.18, 137877.25, -47058.85, -42930.37, -25655.46, 22492.92, -10029.72, 17981.75, 0.00, 0.00, 0.00
144, -4759.38, 175766.11, -49434.28, -51435.30, -42522.20, 19634.62, -8386.11, 12593.11, 0.00, 0.00, 0.00
145, -7130.14, 187500.00, -50945.73, -58764.05, -47548.55, 20243.77, -7417.43, 10824.57, 0.00, 0.00, 0.00
146, -2282.85, 154561.59, -48607.93, -50484.77, -28976.02, 23465.96, -9695.05, 16439.33, 0.00, 0.00, 0.00
147, 308.41, 134819.97, -46901.02, -42707.84, -23754.20, 23012.77, -10148.70, 18555.41, -0.29, 0.28, 0.95
148, -3815.67, 168605.06, -48901.41, -49334.63, -39393.83, 20020.55, -8729.81, 13625.13, 0.00, 0.00, 0.00
149, -7274.71, 187500.00, -50957.91, -58474.26, -48786.01, 19821.37, -7235.24, 10545.15, 0.00, 0.00, 0.00
150, -3389.15, 162676.23, -49195.38, -52725.15, -32541.88, 23014.88, -9288.98, 15314.21, 0.00, 0.00, 0.00
151, 448.17, 132989.72, -46828.47, -42996.08, -22551.59, 23452.10, -10180.12, 18898.42, 0.00, 0.00, 0.00
152, -2835.56, 160462.75, -48331.38, -47322.80, -36062.50, 20500.77, -9018.68, 14730.16, -0.28, 0.28, 0.95
153, -7139.30, 187500.00, -50815.50, -57629.68, -48993.03, 19497.31, -7273.12, 10529.44, 0.00, 0.00, 0.00
154, -4500.97, 171349.56, -49754.49, -54812.98, -36395.39, 22453.09, -8817.25, 14130.44, 0.00, 0.00, 0.00
155, 286.30, 134169.16, -46993.42, -43869.59, -22282.50, 23756.95, -10222.95, 18903.83, 0.00, 0.00, 0.00
156, -1933.72, 153013.53, -47866.86, -45590.76, -32789.02, 21041.80, -9334.67, 15791.55, 0.00, 0.00, 0.00
157, -6743.21, 187500.00, -50536.29, -56271.77, -48182.69, 19347.31, -7429.21, 10827.70, -0.28, 0.27, 0.94
158, -5530.00, 179199.55, -50255.93, -56570.90, -40194.52, 21831.13, -8316.95, 13000.42, 0.00, 0.00, 0.00
159, -159.77, 137685.58, -47318.11, -45269.41, -22969.86, 23899.83, -10209.58, 18587.24, 0.00, 0.00, 0.00
160, -1119.96, 146538.66, -47471.13, -44217.72, -29716.15, 21613.96, -9621.98, 16778.31, 0.00, 0.00, 0.00
161, -6120.67, 185744.02, -50134.65, -54529.14, -46481.25, 19364.48, -7694.43, 11400.35, 0.00, 0.00, 0.00
162, -6367.70, 185649.98, -50616.11, -57835.02, -43580.22, 21206.89, -7822.91, 12037.04, 0.00, 0.00, 0.00
163, -851.47, 142864.20, -47727.93, -47060.08, -24597.58, 23876.83, -10057.41, 17992.51, -0.28, 0.27, 0.94
164, -447.12, 140402.34, -47149.98, -43237.53, -26970.57, 22185.67, -9845.25, 17644.42, 0.00, 0.00, 0.00
165, -5350.02, 179587.13, -49681.31, -52577.47, -44096.66, 19495.21, -8094.39, 12143.34, 0.00, 0.00, 0.00
166, -6990.87, 187500.00, -50858.98, -58567.98, -46327.77, 20595.54, -7469.35, 11238.21, 0.00, 0.00, 0.00
167, -1769.39, 150035.45, -48257.66, -49160.22, -27131.02, 23682.61, -9810.83, 17117.72, 0.00, 0.00, 0.00
168, 49.44, 136884.05, -46928.85, -42715.12, -24705.56, 22751.48, -9989.64, 18350.87, -0.29, 0.28, 0.94
169, -4429.53, 173039.33, -49138.36, -50444.69, -41140.02, 19830.65, -8402.31, 13138.71, 0.00, 0.00, 0.00
170, -7292.75, 187500.00, -50917.20, -58602.96, -48103.41, 20115.21, -7162.59, 10811.96, 0.00, 0.00, 0.00
171, -2816.63, 158157.00, -48802.33, -51365.18, -30350.34, 23326.71, -9418.62, 16093.12, 0.00, 0.00, 0.00
172, 333.62, 133865.17, -46775.81, -42679.52, -23052.07, 23245.57, -10046.28, 18848.96, 0.00, 0.00, 0.00
173, -3474.40, 165210.25, -48597.96, -48372.95, -37908.02, 20244.55, -8742.10, 14192.15, -0.29, 0.28, 0.95
174, -7334.68, 187500.00, -50860.01, -58099.13, -48918.94, 19698.99, -7118.83, 10600.16, 0.00, 0.00, 0.00
175, -3938.71, 166065.75, -49372.30, -53555.38, -34069.96, 22821.73, -8978.79, 14917.40, 0.00, 0.00, 0.00
176, 337.87, 133174.02, -46844.43, -43248.95, -22265.67, 23620.18, -10127.66, 19023.88, 0.00, 0.00, 0.00
177, -2528.03, 157343.06, -48105.63, -46500.84, -34610.98, 20750.67, -9086.56, 15266.53, 0.00, 0.00, 0.00
178, -7088.83, 187500.00, -50685.33, -57038.57, -48709.52, 19453.13, -7232.76, 10713.48, -0.29, 0.28, 0.96
179, -5036.94, 174978.59, -49948.97, -55545.40, -37973.54, 22226.89, -8519.68, 13730.68, 0.00, 0.00, 0.00
180, 47.99, 135623.31, -47103.44, -44380.04, -22422.22, 23851.19, -10176.73, 18877.12, 0.00, 0.00, 0.00
181, -1660.94, 150440.73, -47672.25, -44933.20, -31419.76, 21302.04, -9408.45, 16291.76, 0.00, 0.00, 0.00
182, -6592.92, 187500.00, -50303.16, -55501.26, -47484.74, 19348.81, -7457.48, 11107.14, 0.00, 0.00, 0.00
183, -6002.52, 181912.22, -50378.57, -57114.52, -41653.01, 21578.06, -8023.85, 12619.57, -0.30, 0.28, 0.95
184, -499.92, 139727.56, -47445.75, -45944.01, -23505.29, 23936.44, -10080.41, 18438.60, 0.00, 0.00, 0.00
185, -884.59, 144181.23, -47290.19, -43699.69, -28448.45, 21891.88, -9641.07, 17249.02, 0.00, 0.00, 0.00
186, -5892.70, 183366.86, -49918.57, -53664.50, -45488.52, 19424.54, -7797.92, 11760.95, 0.00, 0.00, 0.00
187, -6742.07, 187500.00, -50666.13, -58141.91, -44773.40, 20965.85, -7571.05, 11739.87, 0.00, 0.00, 0.00
188, -1286.05, 145596.95, -47881.28, -47861.59, -25516.39, 23847.16, -9867.85, 17733.29, 0.00, 0.00, 0.00
189, -261.94, 138371.23, -46944.74, -42875.65, -25850.04, 22477.29, -9789.97, 18082.54, -0.29, 0.27, 0.94
190, -5022.28, 176719.56, -49372.90, -51569.77, -42788.03, 19673.96, -8104.12, 12666.08, 0.00, 0.00, 0.00
191, -7217.24, 187500.00, -50827.26, -58557.43, -47104.71, 20418.01, -7219.21, 11118.94, 0.00, 0.00, 0.00
192, -2261.04, 153808.06, -48427.13, -50021.23, -28363.18, 23586.30, -9557.25, 16793.60, 0.00, 0.00, 0.00
193, 135.76, 135627.45, -46820.67, -42597.26, -23879.60, 23000.28, -9956.45, 18675.33, 0.00, 0.00, 0.00
194, -4096.20, 170193.42, -48894.98, -49509.49, -39748.82, 20025.84, -8497.33, 13655.40, -0.29, 0.27, 0.95
195, -7417.27, 187500.00, -50894.72, -58391.07, -48515.09, 19964.31, -7054.84, 10771.62, 0.00, 0.00, 0.00
196, -3369.39, 161573.06, -49017.06, -52276.37, -31857.67, 23146.17, -9177.83, 15669.65, 0.00, 0.00, 0.00
197, 283.78, 133812.33, -46793.55, -42866.73, -22624.08, 23427.49, -10062.71, 19004.26, 0.00, 0.00, 0.00
198, -3148.40, 162381.39, -48373.78, -47533.53, -36482.79, 20476.39, -8853.75, 14710.73, 0.00, 0.00, 0.00
199, -7341.56, 187500.00, -50769.04, -57651.09, -48903.78, 19613.34, -7066.59, 10690.57, -0.29, 0.28, 0.94
200, -4494.20, 170372.67, -49591.12, -54401.71, -35688.16, 22601.26, -8718.75, 14475.01, 0.00, 0.00, 0.00
201, 174.14, 134449.52, -46910.43, -43653.00, -22195.15, 23757.40, -10096.98, 19063.09, 0.00, 0.00, 0.00
202, -2224.16, 154496.55, -47880.00, -45763.86, -33198.06, 21006.59, -9162.85, 15778.68, 0.00, 0.00, 0.00
203, -6980.02, 187500.00, -50503.99, -56366.89, -48239.29, 19433.48, -7218.36, 10936.13, 0.00, 0.00, 0.00
204, -5545.58, 178070.17, -50099.87, -56213.27, -39525.24, 21988.28, -8205.53, 13330.22, -0.29, 0.28, 0.95
205, -223.56, 137333.34, -47168.46, -44957.56, -22712.17, 23934.49, -10049.28, 18810.18, 0.00, 0.00, 0.00
206, -1360.08, 147315.06, -47364.77, -44261.59, -29997.63, 21602.27, -9354.94, 16837.88, 0.00, 0.00, 0.00
207, -6359.79, 186099.36, -50034.31, -54619.26, -46598.40, 19424.63, -7415.15, 11495.39, 0.00, 0.00, 0.00
208, -6394.92, 184640.80, -50428.75, -57505.43, -42947.67, 21376.27, -7651.27, 12364.18, 0.00, 0.00, 0.00
209, -854.75, 142248.27, -47524.32, -46638.70, -24143.71, 23958.65, -9867.71, 18297.21, 0.00, 0.00, 0.00
210, -647.64, 141825.70, -47044.34, -43204.78, -27190.70, 22182.70, -9581.08, 17743.73, -0.29, 0.27, 0.95
211, -5580.45, 180599.27, -49584.68, -52662.41, -44281.31, 19567.23, -7766.18, 12264.42, 0.00, 0.00, 0.00
212, -7043.50, 187500.00, -50696.84, -58304.72, -45795.91, 20757.82, -7282.44, 11552.63, 0.00, 0.00, 0.00
213, -1729.18, 148605.39, -47995.77, -48679.32, -26529.89, 23787.37, -9613.33, 17479.24, 0.00, 0.00, 0.00
214, -110.66, 137244.38, -46793.66, -42610.09, -24845.04, 22739.19, -9739.30, 18476.58, 0.00, 0.00, 0.00
215, -4695.03, 173932.39, -49108.84, -50604.37, -41443.39, 19839.05, -8173.97, 13176.13, -0.29, 0.27, 0.95
216, -7412.64, 187500.00, -50819.13, -58481.71, -47760.16, 20238.74, -7028.08, 11025.96, 0.00, 0.00, 0.00
217, -2794.68, 157195.70, -48623.22, -50928.05, -29733.90, 23441.10, -9307.98, 16424.13, 0.00, 0.00, 0.00
218, 170.19, 135047.02, -46738.30, -42597.68, -23185.84, 23220.11, -9921.38, 18946.97, 0.00, 0.00, 0.00
219, -3758.31, 166949.83, -48609.93, -48576.20, -38292.49, 20234.79, -8570.60, 14197.27, 0.00, 0.00, 0.00
220, -7487.36, 187500.00, -50743.60, -58033.38, -48694.97, 19829.84, -6918.62, 10801.97, -0.29, 0.28, 0.94
221, -3897.85, 165319.06, -49130.34, -53085.75, -33352.96, 22974.29, -8818.05, 15292.48, 0.00, 0.00, 0.00
222, 228.68, 133834.48, -46736.69, -43057.64, -22242.06, 23618.06, -9969.86, 19181.19, 0.00, 0.00, 0.00
223, -2797.23, 158991.28, -48092.01, -46669.10, -34989.26, 20729.54, -8904.42, 15275.00, 0.00, 0.00, 0.00
224, -7290.85, 187500.00, -50615.39, -57073.88, -48655.25, 19541.50, -7048.11, 10842.23, 0.00, 0.00, 0.00
225, -5037.26, 173870.09, -49765.31, -55166.03, -37299.61, 22358.96, -8429.27, 14040.18, -0.29, 0.28, 0.94
226, -15.78, 135554.30, -46935.89, -44100.59, -22238.13, 23879.44, -10003.63, 19082.82, 0.00, 0.00, 0.00
227, -1886.31, 151595.94, -47590.10, -45010.20, -31725.28, 21288.72, -9172.17, 16339.82, 0.00, 0.00, 0.00
228, -6803.42, 187500.00, -50281.05, -55576.09, -47562.48, 19453.57, -7202.31, 11242.30, 0.00, 0.00, 0.00
229, -6002.40, 181418.78, -50204.70, -56750.90, -40972.29, 21758.89, -7867.17, 12991.03, 0.00, 0.00, 0.00
230, -524.57, 139583.05, -47260.68, -45588.04, -23160.70, 23982.73, -9915.01, 18706.89, -0.30, 0.28, 0.95
231, -1102.54, 145354.27, -47206.66, -43734.32, -28721.37, 21862.49, -9423.83, 17307.36, 0.00, 0.00, 0.00
232, -6111.44, 184365.52, -49809.23, -53739.31, -45615.13, 19504.20, -7474.69, 11890.93, 0.00, 0.00, 0.00
233, -6785.74, 187308.19, -50537.65, -57859.93, -44204.64, 21134.96, -7398.18, 12069.07, 0.00, 0.00, 0.00
234, -1285.76, 145502.56, -47700.23, -47459.57, -25035.94, 23921.17, -9723.14, 18038.93, 0.00, 0.00, 0.00
235, -449.69, 140298.08, -46852.52, -42836.02, -26047.96, 22455.19, -9567.69, 18174.43, 0.00, 0.00, 0.00
236, -5266.94, 178481.59, -49307.52, -51693.77, -43028.47, 19715.02, -7807.37, 12752.70, -0.29, 0.27, 0.95
237, -7300.01, 187500.00, -50720.96, -58359.75, -46665.30, 20587.07, -7010.71, 11430.93, 0.00, 0.00, 0.00
238, -2248.29, 153002.16, -48232.70, -49592.46, -27775.15, 23677.94, -9424.10, 17136.05, 0.00, 0.00, 0.00
239, -32.75, 136641.86, -46712.60, -42506.24, -24001.35, 22971.20, -9762.93, 18784.36, 0.00, 0.00, 0.00
240, -4346.01, 171249.25, -48776.45, -49631.36, -40015.03, 20040.64, -8203.81, 13723.95, 0.00, 0.00, 0.00
241, -7533.79, 187500.00, -50694.74, -58255.51, -48182.56, 20091.58, -6806.51, 11012.97, -0.29, 0.28, 0.95
242, -3325.49, 160772.61, -48755.55, -51789.71, -31161.55, 23285.67, -8989.89, 16044.95, 0.00, 0.00, 0.00
243, 178.01, 134526.92, -46629.85, -42639.77, -22587.60, 23440.97, -9831.39, 19186.49, 0.00, 0.00, 0.00
244, -3398.63, 163954.59, -48325.79, -47661.23, -36812.70, 20469.57, -8618.47, 14752.37, 0.00, 0.00, 0.00
245, -7508.13, 187500.00, -50680.37, -57640.18, -48762.54, 19717.26, -6871.15, 10868.45, 0.00, 0.00, 0.00
246, -4483.40, 169409.28, -49400.82, -53998.17, -35025.12, 22729.22, -8614.61, 14807.31, -0.29, 0.28, 0.95
247, 81.32, 134553.94, -46768.74, -43401.41, -22083.10, 23766.03, -9937.50, 19242.01, 0.00, 0.00, 0.00
248, -2469.67, 156166.73, -47827.64, -45873.58, -33524.75, 20985.63, -8956.90, 15806.91, 0.00, 0.00, 0.00
249, -7164.56, 187500.00, -50377.57, -56405.79, -48211.21, 19522.86, -6967.93, 11088.32, 0.00, 0.00, 0.00
250, -5525.15, 177416.61, -49865.27, -55814.52, -38827.84, 22141.46, -8056.37, 13685.93, 0.00, 0.00, 0.00
251, -266.61, 137031.36, -46999.44, -44608.85, -22444.50, 23967.98, -9899.23, 19043.91, -0.29, 0.28, 0.94
252, -1614.85, 148768.72, -47383.73, -44371.43, -30364.78, 21544.58, -9239.74, 16826.62, 0.00, 0.00, 0.00
253, -6612.90, 187263.75, -50052.42, -54811.71, -46804.15, 19460.39, -7273.35, 11541.57, 0.00, 0.00, 0.00
254, -6439.85, 183905.47, -50277.54, -57262.89, -42397.17, 21503.43, -7582.11, 12639.24, 0.00, 0.00, 0.00
255, -886.00, 141560.20, -47334.64, -46274.28, -23784.07, 24009.06, -9743.62, 18540.57, 0.00, 0.00, 0.00
0, -875.27, 142985.06, -46999.14, -43234.55, -27472.80, 22140.43, -9437.51, 17761.95, -0.28, 0.28, 0.95
1, -5846.01, 182330.50, -49593.25, -52875.51, -44568.30, 19585.49, -7597.78, 12287.20, 0.00, 0.00, 0.00
2, -7115.57, 187500.00, -50574.96, -58144.21, -45349.32, 20901.65, -7170.22, 11823.58, 0.00, 0.00, 0.00
3, -1744.08, 148114.23, -47832.66, -48299.19, -26066.63, 23858.61, -9529.40, 17750.97, 0.00, 0.00, 0.00
4, -320.66, 138078.41, -46740.67, -42592.68, -25065.31, 22693.84, -9620.79, 18511.02, 0.00, 0.00, 0.00
5, -4961.04, 175315.08, -49055.13, -50817.61, -41776.10, 19833.33, -7969.16, 13183.93, 0.00, 0.00, 0.00
6, -7514.50, 187500.00, -50675.38, -58410.80, -47440.28, 20355.84, -6879.15, 11243.62, -0.28, 0.28, 0.95
7, -2773.27, 156298.53, -48413.43, -50511.90, -29145.36, 23548.10, -9209.03, 16728.98, 0.00, 0.00, 0.00
8, 18.93, 135519.47, -46615.12, -42455.28, -23269.48, 23207.46, -9754.73, 19042.57, 0.00, 0.00, 0.00
9, -4012.56, 168528.38, -48559.03, -48759.82, -38649.72, 20226.79, -8359.24, 14202.88, 0.00, 0.00, 0.00
10, -7620.78, 187500.00, -50675.70, -58052.08, -48544.88, 19953.60, -6744.01, 10995.78, 0.00, 0.00, 0.00
11, -3890.37, 164623.16, -48986.13, -52725.84, -32752.72, 23093.62, -8771.50, 15600.58, -0.28, 0.28, 0.95
12, 113.08, 133801.16, -46569.23, -42832.47, -22185.49, 23627.25, -9798.04, 19329.56, 0.00, 0.00, 0.00
13, -3032.98, 160036.19, -47954.01, -46768.36, -35287.43, 20722.55, -8630.05, 15311.97, 0.00, 0.00, 0.00
14, -7446.08, 187500.00, -50423.79, -57079.27, -48543.50, 19661.85, -6737.35, 11048.42, 0.00, 0.00, 0.00
15, -5017.77, 172791.73, -49499.66, -54736.58, -36588.87, 22525.08, -8244.08, 14429.32, 0.00, 0.00, 0.00
16, -82.92, 135320.45, -46737.61, -43755.39, -22019.91, 23923.94, -9798.98, 19312.60, -0.29, 0.27, 0.95
17, -2111.88, 152836.66, -47489.18, -45074.26, -32021.44, 21277.03, -8937.17, 16387.99, 0.00, 0.00, 0.00
18, -7012.61, 187500.00, -50177.92, -55706.69, -47651.53, 19513.29, -6984.16, 11356.09, 0.00, 0.00, 0.00
19, -6024.51, 180529.48, -49987.13, -56437.93, -40354.55, 21907.97, -7746.22, 13325.24, 0.00, 0.00, 0.00
20, -569.99, 139258.58, -47077.45, -45211.18, -22848.44, 24043.77, -9763.08, 18958.99, 0.00, 0.00, 0.00
21, -1322.60, 146715.92, -47147.72, -43777.52, -29013.50, 21838.23, -9250.85, 17341.89, -0.29, 0.28, 0.95
22, -6362.56, 185488.25, -49804.76, -53964.64, -45874.27, 19532.88, -7316.84, 11931.67, 0.00, 0.00, 0.00
23, -6856.73, 186592.92, -50386.02, -57676.82, -43714.47, 21264.71, -7331.98, 12336.73, 0.00, 0.00, 0.00
24, -1310.30, 144732.03, -47511.69, -47072.19, -24621.85, 23991.80, -9620.17, 18300.07, 0.00, 0.00, 0.00
25, -658.73, 141267.00, -46798.11, -42849.28, -26316.72, 22418.73, -9437.96, 18196.29, 0.00, 0.00, 0.00
26, -5537.78, 179461.17, -49282.00, -51959.00, -43377.18, 19698.79, -7673.78, 12726.48, 0.00, 0.00, 0.00
27, -7407.37, 187500.00, -50557.18, -58274.82, -46298.78, 20688.86, -6932.64, 11619.80, -0.29, 0.27, 0.95
28, -2240.70, 151407.83, -48000.97, -49160.52, -27232.00, 23782.57, -9310.37, 17424.62, 0.00, 0.00, 0.00
29, -196.58, 136786.17, -46605.75, -42414.64, -24156.80, 22952.87, -9606.38, 18847.59, 0.00, 0.00, 0.00
30, -4608.08, 172658.70, -48772.13, -49866.98, -40402.77, 20027.74, -8046.34, 13703.16, 0.00, 0.00, 0.00
31, -7681.58, 187500.00, -50648.56, -58276.52, -47986.64, 20200.88, -6723.47, 11188.14, 0.00, 0.00, 0.00
32, -3333.07, 159656.50, -48588.80, -51419.80, -30590.87, 23390.23, -8954.58, 16336.00, -0.29, 0.27, 0.95
33, 37.98, 134511.97, -46510.67, -42497.91, -22648.66, 23427.49, -9706.80, 19281.26, 0.00, 0.00, 0.00
34, -3648.39, 164976.31, -48256.72, -47861.07, -37184.54, 20446.57, -8441.38, 14735.52, 0.00, 0.00, 0.00
35, -7648.10, 187500.00, -50496.01, -57663.36, -48617.59, 19824.52, -6660.98, 11041.94, 0.00, 0.00, 0.00
36, -4437.04, 167916.48, -49105.24, -53539.38, -34310.29, 22897.93, -8435.32, 15190.98, 0.00, 0.00, 0.00
37, 6.21, 134330.45, -46590.11, -43123.31, -21968.12, 23794.06, -9752.65, 19425.52, -0.29, 0.28, 0.95
38, -2685.23, 157173.80, -47730.81, -45986.72, -33847.34, 20973.45, -8735.31, 15837.62, 0.00, 0.00, 0.00
39, -7352.90, 187500.00, -50325.75, -56538.76, -48268.16, 19592.44, -6805.86, 11192.28, 0.00, 0.00, 0.00
40, -5532.26, 176840.25, -49705.54, -55512.03, -38230.76, 22280.40, -7999.85, 13985.49, 0.00, 0.00, 0.00
41, -315.54, 137479.66, -46830.68, -44300.39, -22230.78, 24016.57, -9748.13, 19252.07, 0.00, 0.00, 0.00
42, -1816.35, 150887.97, -47302.57, -44447.25, -30666.46, 21536.66, -9034.26, 16863.03, -0.29, 0.27, 0.95
43, -6801.50, 187500.00, -49968.75, -54944.45, -46925.14, 19543.87, -7025.24, 11660.28, 0.00, 0.00, 0.00
44, -6458.18, 183622.92, -50119.05, -56985.99, -41822.55, 21665.72, -7462.60, 12963.61, 0.00, 0.00, 0.00
45, -909.83, 141415.80, -47182.72, -45926.71, -23450.76, 24063.71, -9637.47, 18778.84, 0.00, 0.00, 0.00
46, -1070.67, 143906.34, -46928.78, -43279.66, -27754.65, 22105.00, -9279.46, 17783.07, 0.00, 0.00, 0.00
47, -6073.35, 183107.81, -49528.29, -53078.89, -44821.66, 19609.45, -7398.63, 12313.29, -0.29, 0.28, 0.95
48, -7163.33, 187500.00, -50392.74, -57935.74, -44852.39, 21054.87, -7026.87, 12099.22, 0.00, 0.00, 0.00
49, -1737.54, 147680.08, -47650.36, -47896.84, -25597.46, 23946.67, -9418.96, 18029.12, 0.00, 0.00, 0.00
50, -473.01, 139077.89, -46617.04, -42530.27, -25238.22, 22685.88, -9424.97, 18590.82, 0.00, 0.00, 0.00
51, -5189.76, 176591.00, -48997.41, -50999.46, -42074.61, 19852.51, -7756.52, 13211.29, 0.00, 0.00, 0.00
52, -7611.04, 187500.00, -50541.58, -58301.39, -47087.68, 20484.05, -6753.00, 11466.06, 0.00, 0.00, 0.00
53, -2749.71, 155103.16, -48198.32, -50090.91, -28565.33, 23650.07, -9111.80, 17035.25, -0.29, 0.28, 0.95
54, -104.38, 135913.73, -46475.80, -42327.54, -23361.33, 23200.39, -9575.80, 19150.37, 0.00, 0.00, 0.00
55, -4244.98, 169703.00, -48508.98, -48940.86, -38992.21, 20224.30, -8162.90, 14210.97, 0.00, 0.00, 0.00
56, -7750.06, 187500.00, -50566.19, -58030.34, -48333.54, 20064.47, -6602.28, 11173.17, 0.00, 0.00, 0.00
57, -3861.17, 163629.77, -48789.65, -52326.24, -32128.75, 23208.62, -8702.74, 15912.38, 0.00, 0.00, 0.00
58, 6.06, 134641.94, -46487.40, -42677.91, -22223.49, 23613.21, -9695.76, 19438.10, -0.29, 0.27, 0.96
59, -3283.94, 161939.02, -47990.25, -46993.56, -35716.45, 20682.58, -8530.52, 15265.62, 0.00, 0.00, 0.00
60, -7617.45, 187500.00, -50423.43, -57216.46, -48566.63, 19723.54, -6671.97, 11117.96, 0.00, 0.00, 0.00
61, -4988.10, 172024.56, -49362.80, -54430.59, -35998.20, 22642.12, -8240.84, 14695.74, 0.00, 0.00, 0.00
62, -157.27, 135577.55, -46639.13, -43553.20, -21942.57, 23917.64, -9730.29, 19431.40, 0.00, 0.00, 0.00
63, -2364.73, 154442.50, -47511.83, -45272.61, -32445.61, 21218.18, -8845.01, 16321.62, -0.29, 0.28, 0.95
64, -7202.96, 187500.00, -50136.88, -55877.82, -47769.90, 19562.31, -6849.51, 11401.65, 0.00, 0.00, 0.00
65, -5994.00, 179556.34, -49799.39, -56146.89, -39750.00, 22039.94, -7688.35, 13597.66, 0.00, 0.00, 0.00
66, -569.90, 138295.84, -46864.16, -44866.16, -22551.03, 24086.82, -9618.96, 19170.44, 0.00, 0.00, 0.00
67, -1500.09, 146853.44, -46997.45, -43801.30, -29273.12, 21814.90, -9021.32, 17376.04, 0.00, 0.00, 0.00
68, -6544.19, 185808.77, -49668.86, -54097.07, -46025.84, 19564.64, -7084.25, 11986.99, -0.29, 0.27, 0.95
69, -6831.25, 186024.84, -50178.55, -57401.85, -43143.83, 21417.42, -7193.73, 12628.47, 0.00, 0.00, 0.00
70, -1264.71, 143807.19, -47293.25, -46651.91, -24174.53, 24073.95, -9467.51, 18584.13, 0.00, 0.00, 0.00
71, -823.26, 141516.33, -46721.09, -42841.18, -26554.21, 22387.75, -9275.82, 18235.11, 0.00, 0.00, 0.00
72, -5744.64, 180255.33, -49252.54, -52140.07, -43641.09, 19729.62, -7478.07, 12758.49, 0.00, 0.00, 0.00
73, -7433.88, 187500.00, -50453.94, -58120.43, -45874.18, 20835.67, -6832.55, 11870.32, -0.29, 0.28, 0.95
74, -2192.24, 150967.44, -47839.19, -48776.67, -26735.23, 23866.63, -9244.50, 17701.11, 0.00, 0.00, 0.00
75, -329.42, 137632.52, -46511.50, -42353.58, -24323.66, 22930.68, -9460.11, 18914.45, 0.00, 0.00, 0.00
76, -4813.58, 173786.06, -48680.67, -50029.46, -40690.68, 20041.22, -7820.94, 13727.41, 0.00, 0.00, 0.00
77, -7720.54, 187500.00, -50440.96, -58140.21, -47627.09, 20338.43, -6517.03, 11419.42, 0.00, 0.00, 0.00
78, -3229.92, 158813.91, -48333.68, -50939.04, -29917.52, 23521.54, -8805.09, 16684.68, 0.00, 0.00, 0.00
79, -43.52, 135039.36, -46380.67, -42324.48, -22685.37, 23420.71, -9529.35, 19408.49, -0.30, 0.28, 0.95
80, -3843.87, 165964.92, -48167.67, -47974.93, -37480.21, 20454.66, -8191.29, 14780.67, 0.00, 0.00, 0.00
81, -7750.15, 187500.00, -50449.92, -57646.38, -48462.04, 19943.52, -6495.86, 11219.68, 0.00, 0.00, 0.00
82, -4379.80, 167478.55, -48985.10, -53177.48, -33691.30, 23009.85, -8415.30, 15484.97, 0.00, 0.00, 0.00
83, -57.89, 135242.11, -46482.64, -42922.75, -21920.78, 23791.46, -9635.59, 19563.79, 0.00, 0.00, 0.00
84, -2908.61, 159012.39, -47723.77, -46148.35, -34222.82, 20941.44, -8584.79, 15817.61, -0.29, 0.28, 0.95
85, -7497.49, 187500.00, -50263.64, -56607.15, -48254.66, 19679.17, -6634.82, 11306.14, 0.00, 0.00, 0.00
86, -5476.56, 175591.44, -49528.98, -55153.73, -37580.10, 22415.33, -7933.19, 14289.94, 0.00, 0.00, 0.00
87, -343.95, 136492.38, -46691.74, -44029.05, -22056.70, 24023.05, -9650.72, 19413.56, 0.00, 0.00, 0.00
88, -2024.82, 151173.97, -47268.62, -44568.64, -31027.35, 21485.30, -8901.45, 16829.77, 0.00, 0.00, 0.00
89, -6989.19, 187500.00, -49930.96, -55103.46, -47075.95, 19575.86, -6891.49, 11680.15, -0.29, 0.29, 0.95
90, -6428.90, 182826.83, -49959.59, -56713.17, -41242.01, 21796.06, -7414.79, 13217.66, 0.00, 0.00, 0.00
111, -5893.82, 178401.52, -49555.52, -55705.93, -39009.18, 22205.59, -7536.56, 13949.54, 0.00, 0.00, 0.00
112, -515.90, 137660.41, -46629.85, -44465.91, -22205.16, 24149.43, -9413.86, 19443.25, 0.00, 0.00, 0.00
113, -1648.08, 148305.52, -46923.66, -43802.80, -29525.04, 21808.75, -8806.86, 17438.63, 0.00, 0.00, 0.00
114, -6694.75, 186838.77, -49627.64, -54156.24, -46119.16, 19654.96, -6858.43, 12096.52, 0.00, 0.00, 0.00
115, -6770.59, 185120.34, -49987.64, -57052.98, -42485.50, 21588.52, -7067.44, 12956.39, -0.29, 0.28, 0.95
116, -1192.22, 143301.34, -47078.27, -46227.83, -23721.95, 24146.92, -9324.70, 18872.25, 0.00, 0.00, 0.00
117, -951.00, 142906.05, -46616.08, -42794.83, -26753.29, 22375.59, -9079.35, 18315.09, 0.00, 0.00, 0.00
118, -5912.19, 181605.77, -49179.85, -52215.73, -43815.43, 19794.93, -7229.22, 12847.51, 0.00, 0.00, 0.00
119, -7409.54, 187500.00, -50271.44, -57822.42, -45308.82, 21015.47, -6657.04, 12188.54, 0.00, 0.00, 0.00
120, -2085.82, 149906.11, -47566.52, -48286.85, -26124.32, 23970.79, -9074.70, 18048.25, -0.29, 0.27, 0.95
121, -436.57, 138399.00, -46404.41, -42255.73, -24455.85, 22908.06, -9283.51, 19010.56, 0.00, 0.00, 0.00
122, -5031.91, 175181.36, -48721.86, -50200.61, -41020.19, 20041.74, -7682.00, 13724.44, 0.00, 0.00, 0.00
123, -7786.95, 187500.00, -50411.88, -58039.45, -47310.39, 20468.16, -6454.71, 11609.29, 0.00, 0.00, 0.00
124, -3146.34, 157662.25, -48127.19, -50521.56, -29297.53, 23625.84, -8736.69, 16988.93, 0.00, 0.00, 0.00
125, -117.73, 135306.48, -46214.49, -42166.39, -22718.04, 23410.75, -9351.01, 19525.95, 0.00, 0.00, 0.00
126, -4050.27, 167346.23, -48129.14, -48105.82, -37802.27, 20449.03, -8001.30, 14779.80, -0.29, 0.28, 0.95
127, -7834.96, 187500.00, -50343.59, -57564.73, -48232.31, 20062.32, -6335.22, 11391.54, 0.00, 0.00, 0.00
128, -4287.31, 166683.28, -48780.02, -52744.55, -33008.99, 23136.09, -8340.60, 15800.78, 0.00, 0.00, 0.00
129, -107.78, 135146.64, -46346.27, -42725.45, -21876.37, 23781.07, -9511.81, 19696.16, 0.00, 0.00, 0.00
130, -3113.67, 160171.75, -47681.95, -46275.69, -34565.21, 20919.06, -8415.81, 15811.69, 0.00, 0.00, 0.00
131, -7619.24, 187500.00, -50154.56, -56598.73, -48162.11, 19783.84, -6439.40, 11442.57, -0.29, 0.28, 0.95
132, -5375.28, 174464.81, -49261.14, -54705.27, -36830.02, 22574.28, -7794.90, 14645.73, 0.00, 0.00, 0.00
133, -330.56, 136475.34, -46475.78, -43694.64, -21810.21, 24059.04, -9461.81, 19643.94, 0.00, 0.00, 0.00
134, -2197.04, 152675.80, -47171.99, -44600.16, -31287.28, 21480.85, -8671.85, 16889.80, 0.00, 0.00, 0.00
135, -7137.94, 187500.00, -49835.98, -55141.33, -47098.63, 19657.76, -6670.39, 11797.76, 0.00, 0.00, 0.00
136, -6357.10, 181630.47, -49731.45, -56329.77, -40545.01, 21957.82, -7295.79, 13546.41, -0.29, 0.28, 0.96
137, -832.96, 140186.52, -46768.77, -45156.49, -22716.95, 24186.46, -9348.19, 19278.94, 0.00, 0.00, 0.00
138, -1378.41, 145894.61, -46724.02, -43273.29, -28235.73, 22077.89, -8873.44, 17887.25, 0.00, 0.00, 0.00
139, -6427.00, 184607.81, -49397.00, -53311.12, -45170.21, 19708.72, -6965.07, 12435.59, 0.00, 0.00, 0.00
140, -7143.19, 187500.00, -50134.71, -57464.88, -43807.68, 21333.51, -6875.71, 12608.98, 0.00, 0.00, 0.00
141, -1628.35, 146318.38, -47313.37, -47103.13, -24674.25, 24095.34, -9251.10, 18551.37, -0.29, 0.28, 0.95
142, -776.88, 140867.80, -46522.54, -42502.33, -25696.71, 22619.50, -9174.07, 18651.30, 0.00, 0.00, 0.00
143, -5611.38, 178969.14, -48982.86, -51365.74, -42670.57, 19886.79, -7417.87, 13217.77, 0.00, 0.00, 0.00
144, -7648.68, 187500.00, -50270.23, -57968.58, -46246.47, 20784.19, -6492.73, 11946.72, 0.00, 0.00, 0.00
145, -2564.95, 153548.56, -47744.71, -49175.33, -27353.79, 23874.79, -8866.04, 17669.97, 0.00, 0.00, 0.00
146, -313.35, 137147.22, -46269.72, -42083.91, -23559.61, 23169.64, -9253.15, 19320.82, -0.29, 0.28, 0.96
147, -4660.52, 172050.67, -48448.95, -49257.68, -39629.55, 20224.62, -7779.01, 14209.85, 0.00, 0.00, 0.00
148, -7882.68, 187500.00, -50366.97, -57874.79, -47795.34, 20319.32, -6308.15, 11548.61, 0.00, 0.00, 0.00
149, -3665.06, 161293.95, -48337.19, -51412.43, -30763.06, 23476.42, -8485.66, 16576.50, 0.00, 0.00, 0.00
150, -105.81, 134769.30, -46159.01, -42225.66, -22139.94, 23632.19, -9314.17, 19728.90, 0.00, 0.00, 0.00
151, -3659.07, 163943.25, -47818.89, -47186.18, -36300.50, 20684.15, -8056.55, 15321.87, 0.00, 0.00, 0.00
152, -7787.01, 187500.00, -50165.25, -57128.78, -48232.45, 19956.46, -6244.29, 11469.48, -0.29, 0.28, 0.96
153, -4784.15, 170204.64, -48933.64, -53533.14, -34569.48, 22948.60, -8012.23, 15393.33, 0.00, 0.00, 0.00
154, -202.26, 135576.64, -46355.88, -42989.27, -21658.17, 23961.31, -9431.74, 19790.88, 0.00, 0.00, 0.00
155, -2741.26, 157055.47, -47426.76, -45451.24, -33071.30, 21188.36, -8475.83, 16350.77, 0.00, 0.00, 0.00
156, -7454.44, 187500.00, -49975.66, -55950.53, -47743.35, 19758.43, -6419.22, 11663.09, 0.00, 0.00, 0.00
157, -5845.74, 177903.70, -49464.14, -55402.98, -38417.71, 22346.92, -7519.13, 14236.88, -0.29, 0.28, 0.95
158, -560.83, 138294.95, -46613.24, -44229.86, -22055.72, 24154.93, -9411.94, 19568.33, 0.00, 0.00, 0.00
159, -1878.80, 150168.58, -46999.82, -43962.59, -29921.12, 21747.20, -8763.07, 17364.35, 0.00, 0.00, 0.00
160, -6887.87, 187500.00, -49663.77, -54355.68, -46330.02, 19694.86, -6736.64, 12110.98, 0.00, 0.00, 0.00
161, -6760.15, 184698.09, -49917.64, -56847.46, -41991.68, 21716.13, -7045.78, 13193.45, 0.00, 0.00, 0.00
162, -1203.19, 143021.34, -47004.49, -45936.61, -23435.40, 24174.04, -9303.38, 19030.83, -0.29, 0.28, 0.94
163, -1149.19, 144437.06, -46634.48, -42862.93, -27063.36, 22323.76, -8983.99, 18271.23, 0.00, 0.00, 0.00
164, -6131.91, 183021.64, -49210.11, -52456.39, -44119.53, 19788.80, -7101.24, 12806.59, 0.00, 0.00, 0.00
165, -7430.48, 187500.00, -50156.80, -57702.39, -44909.14, 21107.51, -6611.58, 12354.84, 0.00, 0.00, 0.00
166, -2062.19, 149275.56, -47481.25, -47942.34, -25709.38, 24029.33, -9058.20, 18233.61, 0.00, 0.00, 0.00
167, -572.65, 138968.81, -46309.15, -42177.61, -24607.30, 22897.93, -9106.82, 19051.42, -0.29, 0.28, 0.94
168, -5215.56, 175863.59, -48631.11, -50337.94, -41276.85, 20059.66, -7423.95, 13741.47, 0.00, 0.00, 0.00
169, -7812.54, 187500.00, -50265.25, -57930.31, -46967.03, 20587.03, -6299.55, 11810.97, 0.00, 0.00, 0.00
170, -3070.10, 156558.63, -47977.01, -50096.11, -28721.23, 23735.50, -8658.06, 17269.67, 0.00, 0.00, 0.00
171, -230.74, 135530.05, -46179.24, -42032.45, -22809.55, 23400.67, -9231.90, 19588.60, 0.00, 0.00, 0.00
172, -4266.34, 168533.69, -48144.45, -48298.81, -38158.79, 20431.73, -7848.05, 14742.81, 0.00, 0.00, 0.00
173, -7927.29, 187500.00, -50284.07, -57600.02, -48093.51, 20145.63, -6236.29, 11507.97, -0.29, 0.28, 0.95
174, -4205.06, 165427.84, -48610.97, -52344.77, -32381.73, 23265.44, -8273.83, 16095.40, 0.00, 0.00, 0.00
175, -166.30, 135054.08, -46237.64, -42478.21, -21814.18, 23803.00, -9353.69, 19828.08, 0.00, 0.00, 0.00
176, -3305.98, 161141.36, -47651.04, -46389.28, -34883.07, 20909.34, -8213.95, 15808.47, 0.00, 0.00, 0.00
177, -7736.23, 187500.00, -50146.05, -56682.26, -48156.03, 19866.07, -6293.18, 11544.83, 0.00, 0.00, 0.00
178, -5320.12, 173963.89, -49202.02, -54395.65, -36253.43, 22701.01, -7802.01, 14905.53, -0.29, 0.28, 0.95
179, -374.77, 136795.31, -46438.70, -43451.12, -21691.14, 24076.56, -9405.10, 19766.94, 0.00, 0.00, 0.00
180, -2408.07, 153890.64, -47219.22, -44751.59, -31667.99, 21433.85, -8575.94, 16825.59, 0.00, 0.00, 0.00
181, -7297.24, 187500.00, -49861.91, -55308.63, -47241.73, 19714.60, -6529.77, 11835.32, 0.00, 0.00, 0.00
182, -6322.44, 181368.63, -49669.60, -56082.00, -40008.86, 22086.96, -7284.63, 13784.97, 0.00, 0.00, 0.00
183, -834.32, 140287.28, -46681.50, -44853.42, -22452.24, 24220.44, -9285.61, 19443.65, -0.29, 0.28, 0.95
184, -1572.58, 147615.98, -46765.79, -43369.94, -28577.20, 22024.29, -8780.61, 17837.72, 0.00, 0.00, 0.00
185, -6612.74, 186174.45, -49440.63, -53506.95, -45406.27, 19754.34, -6803.96, 12455.98, 0.00, 0.00, 0.00
186, -7113.04, 187182.95, -50014.98, -57232.06, -43282.23, 21492.23, -6767.59, 12886.18, 0.00, 0.00, 0.00
187, -1580.85, 145921.13, -47159.41, -46728.04, -24257.65, 24158.28, -9157.22, 18785.23, 0.00, 0.00, 0.00
188, -914.01, 142122.42, -46442.05, -42470.70, -25899.32, 22594.69, -8992.13, 18688.00, -0.29, 0.27, 0.95
189, -5788.88, 180054.88, -48935.32, -51507.49, -42911.75, 19916.21, -7181.97, 13247.72, 0.00, 0.00, 0.00
190, -7675.72, 187500.00, -50231.70, -57835.61, -45876.75, 20910.01, -6408.67, 12149.27, 0.00, 0.00, 0.00
191, -2525.57, 152999.70, -47677.14, -48850.29, -26903.10, 23936.24, -8873.08, 17886.56, 0.00, 0.00, 0.00
192, -442.79, 137681.95, -46216.84, -42048.75, -23743.25, 23128.67, -9143.47, 19346.89, 0.00, 0.00, 0.00
193, -4871.99, 173255.25, -48445.86, -49462.42, -39981.48, 20210.78, -7613.16, 14174.09, -0.29, 0.27, 0.95
194, -7944.68, 187500.00, -50283.11, -57828.54, -47550.65, 20416.37, -6198.47, 11692.62, 0.00, 0.00, 0.00
195, -3607.73, 160599.72, -48261.26, -51084.46, -30254.52, 23551.34, -8499.90, 16793.45, 0.00, 0.00, 0.00
196, -224.93, 135471.70, -46184.09, -42179.89, -22294.39, 23587.08, -9289.29, 19740.57, 0.00, 0.00, 0.00
197, -3915.58, 165549.55, -47950.48, -47465.29, -36774.52, 20630.44, -8018.78, 15200.95, 0.00, 0.00, 0.00
198, -7942.56, 187500.00, -50248.20, -57269.50, -48246.64, 20016.68, -6236.74, 11490.12, 0.00, 0.00, 0.00
199, -4746.82, 169363.91, -48865.63, -53267.38, -34038.60, 23037.14, -8067.73, 15588.62, -0.29, 0.28, 0.96
200, -266.52, 135943.66, -46290.06, -42852.59, -21657.52, 23944.15, -9370.97, 19860.02, 0.00, 0.00, 0.00
201, -2948.84, 158476.61, -47417.93, -45621.68, -33459.64, 21155.84, -8323.86, 16297.62, 0.00, 0.00, 0.00
202, -7611.37, 187500.00, -49993.50, -56070.29, -47813.42, 19826.55, -6296.89, 11704.02, 0.00, 0.00, 0.00
203, -5804.90, 177152.20, -49369.10, -55124.96, -37851.58, 22458.38, -7517.20, 14464.39, 0.00, 0.00, 0.00
204, -584.10, 138046.42, -46517.53, -44025.07, -21919.42, 24149.27, -9354.43, 19686.83, -0.28, 0.28, 0.95
205, -2080.43, 151234.27, -46991.10, -44111.12, -30308.21, 21699.05, -8638.73, 17308.83, 0.00, 0.00, 0.00
206, -7072.32, 187500.00, -49639.24, -54499.32, -46491.56, 19740.59, -6574.21, 12116.79, 0.00, 0.00, 0.00
207, -6733.26, 184172.02, -49802.61, -56589.07, -41437.90, 21844.52, -7002.20, 13407.36, 0.00, 0.00, 0.00
208, -1167.83, 142803.95, -46871.34, -45653.26, -23135.48, 24203.38, -9232.32, 19213.34, 0.00, 0.00, 0.00
209, -1319.07, 145179.88, -46616.95, -42968.57, -27408.38, 22268.06, -8878.00, 18240.92, -0.28, 0.28, 0.94
210, -6341.99, 183784.69, -49236.67, -52624.23, -44389.73, 19824.81, -6949.51, 12789.62, 0.00, 0.00, 0.00
211, -7448.74, 187500.00, -50112.09, -57497.43, -44447.36, 21253.58, -6560.59, 12555.35, 0.00, 0.00, 0.00
212, -1999.56, 149063.64, -47345.51, -47655.59, -25307.65, 24067.75, -9021.03, 18446.09, 0.00, 0.00, 0.00
213, -729.02, 140349.92, -46343.66, -42349.47, -24995.46, 22799.27, -9087.86, 18998.67, 0.00, 0.00, 0.00
214, -5468.71, 177286.77, -48729.73, -50592.08, -41686.05, 20059.21, -7345.79, 13662.84, -0.29, 0.28, 0.95
215, -7911.53, 187500.00, -50286.86, -57715.80, -46584.14, 20750.08, -6244.76, 11948.21, 0.00, 0.00, 0.00
216, -3007.18, 156586.61, -47890.58, -49794.70, -28215.23, 23782.46, -8675.00, 17459.62, 0.00, 0.00, 0.00
217, -338.20, 137720.81, -46191.98, -42234.89, -23156.27, 23280.95, -9239.92, 19552.23, 0.00, 0.00, 0.00
218, -4520.39, 170759.45, -48244.59, -48610.68, -38670.33, 20403.65, -7776.31, 14648.46, 0.00, 0.00, 0.00
219, -8068.13, 187500.00, -50296.79, -57393.49, -47803.00, 20334.63, -6100.53, 11634.82, -0.29, 0.28, 0.95
220, -4119.38, 164439.34, -48446.98, -51919.57, -31689.38, 23366.58, -8210.91, 16343.59, 0.00, 0.00, 0.00
221, -201.32, 136451.20, -46160.64, -42609.00, -22019.17, 23677.40, -9324.16, 19846.38, 0.00, 0.00, 0.00
222, -3522.43, 163451.06, -47680.20, -46694.63, -35405.54, 20860.95, -8105.50, 15740.46, 0.00, 0.00, 0.00
223, -7920.09, 187500.00, -50156.08, -56500.67, -47986.60, 20034.22, -6130.68, 11634.19, 0.00, 0.00, 0.00
224, -5259.21, 173112.36, -49055.02, -53912.54, -35495.22, 22832.93, -7730.95, 15146.01, 0.00, 0.00, 0.00
225, -350.90, 137808.36, -46308.70, -43503.85, -21733.03, 23969.18, -9349.51, 19845.78, -0.29, 0.28, 0.95
226, -2588.22, 156332.31, -47223.04, -45083.38, -32209.51, 21360.27, -8469.43, 16780.17, 0.00, 0.00, 0.00
227, -7505.07, 187500.00, -49868.80, -55184.31, -47211.29, 19870.10, -6337.52, 11910.24, 0.00, 0.00, 0.00
228, -6305.25, 180279.08, -49560.63, -55555.84, -39226.10, 22253.06, -7210.87, 14014.12, 0.00, 0.00, 0.00
229, -788.30, 140521.75, -46586.04, -44843.81, -22355.07, 24122.98, -9290.75, 19533.70, 0.00, 0.00, 0.00
230, -1744.64, 149830.08, -46800.33, -43773.86, -29174.68, 21904.46, -8756.16, 17757.74, -0.29, 0.28, 0.96
231, -6868.20, 187106.78, -49504.78, -53529.12, -45589.51, 19856.17, -6684.71, 12445.00, 0.00, 0.00, 0.00
232, -7150.68, 186555.61, -49914.71, -56712.83, -42550.46, 21676.43, -6700.29, 13060.21, 0.00, 0.00, 0.00
233, -1472.40, 146007.25, -46955.89, -46535.66, -23905.28, 24134.79, -9072.93, 18961.52, 0.00, 0.00, 0.00
234, -1025.57, 144147.83, -46432.71, -42845.16, -26444.17, 22459.39, -8959.63, 18635.79, 0.00, 0.00, 0.00
235, -6039.98, 181353.22, -49009.59, -51608.10, -43228.00, 19991.09, -7057.25, 13219.78, -0.29, 0.28, 0.95
236, -7767.43, 187500.00, -50201.55, -57335.66, -45239.84, 21119.34, -6331.47, 12294.17, 0.00, 0.00, 0.00
237, -2409.83, 152455.44, -47509.55, -48562.94, -26382.52, 23948.40, -8834.79, 18067.43, 0.00, 0.00, 0.00
238, -512.88, 140432.72, -46210.09, -42424.19, -24231.62, 22975.87, -9148.59, 19303.55, 0.00, 0.00, 0.00
239, -5110.44, 175235.08, -48516.07, -49654.64, -40413.65, 20256.56, -7490.56, 14144.43, 0.00, 0.00, 0.00
240, -8079.69, 187500.00, -50251.21, -57347.69, -47013.63, 20647.71, -6063.80, 11837.39, -0.29, 0.28, 0.95
241, -3484.32, 160417.38, -48068.90, -50639.82, -29532.17, 23629.73, -8419.25, 17022.78, 0.00, 0.00, 0.00
242, -229.08, 137947.34, -46103.36, -42456.27, -22619.76, 23440.21, -9257.24, 19755.50, 0.00, 0.00, 0.00
243, -4121.95, 168259.72, -47974.20, -47727.93, -37273.81, 20635.51, -7880.55, 15177.57, 0.00, 0.00, 0.00
244, -8106.06, 187500.00, -50226.74, -56829.35, -47841.16, 20265.19, -6029.14, 11644.12, 0.00, 0.00, 0.00
245, -4641.50, 168309.95, -48674.63, -52706.37, -33192.72, 23170.46, -7953.18, 15850.69, 0.00, 0.00, 0.00
246, -213.41, 137252.20, -46122.29, -43001.78, -21779.47, 23813.10, -9287.75, 19931.90, -0.29, 0.28, 0.95
247, -3137.94, 160712.03, -47465.47, -45969.96, -34040.61, 21095.62, -8238.27, 16235.93, 0.00, 0.00, 0.00
248, -7826.75, 187500.00, -50041.22, -55779.27, -47629.53, 20041.98, -6118.43, 11791.95, 0.00, 0.00, 0.00
249, -5741.25, 176328.19, -49210.52, -54500.32, -36947.07, 22648.20, -7395.90, 14723.03, 0.00, 0.00, 0.00
250, -482.71, 139043.16, -46296.90, -44033.67, -21828.96, 24056.24, -9239.14, 19818.24, 0.00, 0.00, 0.00
251, -2200.17, 153502.86, -46916.02, -44431.15, -30819.34, 21624.35, -8481.06, 17307.29, -0.29, 0.27, 0.96
252, -7286.33, 187500.00, -49664.88, -54291.36, -46456.67, 19927.99, -6347.60, 12207.07, 0.00, 0.00, 0.00
253, -6715.09, 183149.52, -49658.49, -55908.50, -40525.10, 22068.81, -6852.46, 13671.18, 0.00, 0.00, 0.00
254, -1041.08, 142759.30, -46648.85, -45520.91, -22840.87, 24145.81, -9121.28, 19389.38, 0.00, 0.00, 0.00
255, -1418.58, 147489.83, -46584.88, -43337.17, -27943.23, 22150.02, -8787.16, 18219.13, 0.00, 0.00, 0.00
0, -6569.60, 185026.86, -49298.94, -52596.47, -44568.26, 19952.44, -6765.52, 12826.15, -0.29, 0.28, 0.96
1, -7487.63, 187500.00, -50045.80, -56870.82, -43645.64, 21492.74, -6437.95, 12773.22, 0.00, 0.00, 0.00
2, -1860.76, 148938.34, -47148.72, -47380.45, -24818.91, 24066.39, -8930.44, 18649.27, 0.00, 0.00, 0.00
3, -789.33, 142855.88, -46291.60, -42632.22, -25423.12, 22680.94, -8999.73, 18999.29, 0.00, 0.00, 0.00
4, -5687.71, 179320.95, -48804.61, -50689.60, -42013.93, 20124.53, -7186.29, 13662.95, 0.00, 0.00, 0.00
5, -7982.95, 187500.00, -50241.51, -57248.00, -45983.30, 20963.12, -6114.92, 12135.39, -0.29, 0.28, 0.95
6, -2871.73, 156271.75, -47697.88, -49402.98, -27578.72, 23835.65, -8590.60, 17702.38, 0.00, 0.00, 0.00
7, -368.40, 139546.11, -46104.52, -42401.35, -23445.01, 23171.65, -9146.98, 19583.23, 0.00, 0.00, 0.00
8, -4716.42, 173047.52, -48266.27, -48746.79, -39042.44, 20439.75, -7586.87, 14653.11, 0.00, 0.00, 0.00
9, -8166.63, 187500.00, -50263.89, -57026.65, -47360.15, 20536.31, -5932.15, 11809.57, 0.00, 0.00, 0.00
10, -4001.28, 164436.95, -48288.30, -51474.08, -30969.17, 23458.96, -8144.46, 16600.26, -0.28, 0.28, 0.95
11, -204.25, 138219.47, -46055.43, -42662.04, -22150.96, 23594.90, -9230.93, 19921.80, 0.00, 0.00, 0.00
12, -3728.52, 165552.02, -47728.48, -46900.33, -35855.08, 20836.16, -7982.52, 15697.72, 0.00, 0.00, 0.00
13, -8064.11, 187500.00, -50122.64, -56291.35, -47753.96, 20184.32, -5970.13, 11736.74, 0.00, 0.00, 0.00
14, -5157.87, 172387.47, -48876.36, -53419.53, -34711.18, 22965.95, -7642.80, 15411.91, 0.00, 0.00, 0.00
15, -315.18, 138822.67, -46152.39, -43421.95, -21680.34, 23921.66, -9234.49, 19971.37, 0.00, 0.00, 0.00
16, -2734.71, 158245.89, -47131.76, -45208.88, -32565.80, 21348.96, -8235.63, 16807.04, -0.29, 0.28, 0.95
17, -7639.20, 187500.00, -49785.80, -54996.62, -47073.06, 20034.45, -6046.97, 12057.02, 0.00, 0.00, 0.00
18, -6193.06, 179369.91, -49324.42, -55000.42, -38370.16, 22439.45, -7026.14, 14353.75, 0.00, 0.00, 0.00
19, -688.86, 140952.52, -46355.66, -44588.04, -22079.86, 24123.21, -9104.36, 19760.15, 0.00, 0.00, 0.00
20, -1871.13, 151763.05, -46755.06, -43897.28, -29531.91, 21857.46, -8574.06, 17783.20, 0.00, 0.00, 0.00
21, -7041.81, 187500.00, -49512.33, -53479.88, -45651.96, 19968.00, -6446.04, 12532.94, -0.29, 0.27, 0.95
22, -7120.42, 185772.25, -49821.95, -56280.04, -41848.75, 21843.55, -6601.65, 13325.98, 0.00, 0.00, 0.00
23, -1398.01, 145300.22, -46821.38, -46279.04, -23547.88, 24120.91, -9022.71, 19145.52, 0.00, 0.00, 0.00
24, -1156.88, 145370.41, -46411.96, -42990.65, -26803.34, 22373.11, -8851.49, 18617.62, 0.00, 0.00, 0.00
25, -6249.30, 182879.19, -49058.66, -51692.18, -43468.69, 20050.88, -6860.64, 13236.28, 0.00, 0.00, 0.00
26, -7779.50, 187500.00, -50107.20, -56978.42, -44641.19, 21296.05, -6195.93, 12543.04, -0.28, 0.27, 0.95
27, -2310.50, 151981.94, -47327.18, -48200.13, -25860.54, 23987.40, -8739.62, 18320.34, 0.00, 0.00, 0.00
28, -616.26, 141339.55, -46153.11, -42481.41, -24487.12, 22896.50, -9022.39, 19327.33, 0.00, 0.00, 0.00
29, -5323.87, 176745.03, -48546.49, -49785.85, -40725.79, 20270.33, -7297.89, 14134.10, 0.00, 0.00, 0.00
30, -8145.60, 187500.00, -50232.48, -57104.95, -46594.91, 20804.13, -5933.52, 12027.12, 0.00, 0.00, 0.00
31, -3363.58, 159420.09, -47840.71, -50210.98, -28858.11, 23714.80, -8290.62, 17330.71, -0.29, 0.27, 0.95
32, -257.51, 138641.97, -45924.45, -42366.32, -22683.20, 23400.33, -9034.13, 19879.87, 0.00, 0.00, 0.00
33, -4293.99, 169615.64, -47923.75, -47810.47, -37574.33, 20643.76, -7610.97, 15214.94, 0.00, 0.00, 0.00
34, -8177.74, 187500.00, -50159.93, -56610.21, -47514.75, 20429.11, -5790.96, 11858.02, 0.00, 0.00, 0.00
35, -4516.95, 167510.03, -48486.03, -52241.84, -32439.46, 23286.78, -7842.91, 16189.48, 0.00, 0.00, 0.00
36, -225.33, 137900.78, -46009.77, -42879.43, -21774.42, 23762.94, -9156.75, 20067.96, -0.29, 0.28, 0.95
37, -3330.86, 162279.58, -47473.81, -46119.70, -34427.74, 21055.66, -8067.37, 16229.22, 0.00, 0.00, 0.00
38, -7969.11, 187500.00, -50032.97, -55721.49, -47539.63, 20132.28, -5961.90, 11889.74, 0.00, 0.00, 0.00
39, -5660.67, 175400.53, -49077.16, -54094.93, -36241.88, 22761.09, -7347.47, 14996.70, 0.00, 0.00, 0.00
40, -473.61, 139637.52, -46215.43, -43875.07, -21729.52, 24020.99, -9168.69, 19954.56, 0.00, 0.00, 0.00
41, -2392.02, 155836.31, -46978.02, -44606.48, -31245.64, 21569.57, -8372.43, 17272.22, 0.00, 0.00, 0.00
42, -7450.93, 187500.00, -49681.60, -54320.06, -46519.93, 20018.96, -6152.47, 12288.81, -0.29, 0.28, 0.95
43, -6655.79, 182719.45, -49555.43, -55543.77, -39856.29, 22208.94, -6786.66, 13949.30, 0.00, 0.00, 0.00
44, -994.00, 143373.61, -46533.34, -45274.30, -22574.05, 24142.99, -9044.59, 19581.33, 0.00, 0.00, 0.00
45, -1573.59, 149584.16, -46565.66, -43439.56, -28289.37, 22093.54, -8635.24, 18226.35, 0.00, 0.00, 0.00
46, -6751.32, 186406.02, -49289.53, -52670.41, -44737.06, 20011.16, -6535.11, 12881.51, 0.00, 0.00, 0.00
47, -7448.20, 187500.00, -49895.95, -56527.80, -43017.92, 21650.99, -6280.53, 13062.92, -0.29, 0.28, 0.95
48, -1761.74, 148888.30, -46961.01, -47006.41, -24342.59, 24112.53, -8799.03, 18923.52, 0.00, 0.00, 0.00
49, -879.00, 144127.63, -46155.19, -42611.05, -25621.71, 22647.10, -8757.88, 19089.42, 0.00, 0.00, 0.00
50, -5850.17, 180230.61, -48702.80, -50740.07, -42205.14, 20166.93, -6876.54, 13734.14, 0.00, 0.00, 0.00
51, -7966.41, 187500.00, -50056.21, -56949.07, -45441.48, 21109.34, -5907.81, 12394.42, 0.00, 0.00, 0.00
52, -2733.95, 155009.75, -47452.33, -48942.88, -26947.62, 23922.47, -8423.08, 18026.66, -0.30, 0.28, 0.95
53, -417.46, 140229.97, -45956.77, -42287.29, -23541.77, 23155.38, -8909.05, 19715.67, 0.00, 0.00, 0.00
54, -4882.25, 173652.97, -48194.54, -48805.57, -39293.56, 20464.29, -7299.86, 14712.99, 0.00, 0.00, 0.00
55, -8195.96, 187500.00, -50109.28, -56815.59, -46968.37, 20669.10, -5713.91, 12027.21, 0.00, 0.00, 0.00
56, -3837.62, 162918.58, -48001.00, -50947.65, -30195.60, 23596.38, -7947.56, 16977.60, 0.00, 0.00, 0.00
57, -192.09, 138198.38, -45842.46, -42424.55, -22086.34, 23608.94, -8952.03, 20124.57, -0.30, 0.27, 0.95
58, -3863.41, 166489.84, -47617.13, -46926.30, -36099.54, 20866.98, -7650.82, 15791.46, 0.00, 0.00, 0.00
59, -8121.75, 187500.00, -50029.73, -56140.29, -47511.96, 20331.79, -5706.67, 11951.99, 0.00, 0.00, 0.00
60, -5010.34, 170928.13, -48655.97, -52929.64, -33916.63, 23118.52, -7501.49, 15791.91, 0.00, 0.00, 0.00
61, -286.84, 138196.16, -45989.79, -43141.35, -21528.08, 23930.69, -9042.69, 20177.66, 0.00, 0.00, 0.00
62, -2926.78, 159418.94, -47209.72, -45341.43, -32970.27, 21305.93, -8105.79, 16780.93, 0.00, 0.00, 0.00
63, -7792.56, 187500.00, -49868.15, -55047.92, -47111.98, 20121.55, -5921.25, 12135.01, -0.29, 0.27, 0.95
64, -6115.71, 178713.72, -49246.41, -54655.71, -37700.44, 22565.36, -7016.30, 14631.79, 0.00, 0.00, 0.00
65, -670.37, 140977.72, -46279.22, -44340.16, -21879.25, 24114.04, -9051.58, 19917.01, 0.00, 0.00, 0.00
66, -2043.17, 152962.73, -46744.78, -43994.80, -29885.02, 21809.09, -8420.08, 17765.57, 0.00, 0.00, 0.00
67, -7202.65, 187500.00, -49484.64, -53553.28, -45769.13, 20021.71, -6237.63, 12577.93, 0.00, 0.00, 0.00
68, -7046.30, 184940.36, -49676.91, -55939.38, -41182.77, 21991.21, -6502.37, 13608.26, -0.28, 0.28, 0.95
69, -1301.94, 145068.09, -46627.84, -45889.18, -23123.68, 24171.27, -8877.02, 19408.06, 0.00, 0.00, 0.00
70, -1283.41, 147286.61, -46366.73, -42990.98, -27065.79, 22342.80, -8664.74, 18661.40, 0.00, 0.00, 0.00
71, -6419.98, 184247.30, -49041.67, -51802.02, -43674.64, 20089.61, -6639.29, 13280.71, 0.00, 0.00, 0.00
72, -7736.34, 187500.00, -49954.74, -56701.25, -44071.45, 21444.26, -6058.10, 12812.60, 0.00, 0.00, 0.00
73, -2174.00, 151292.94, -47103.59, -47738.34, -25268.02, 24072.69, -8599.65, 18637.80, -0.29, 0.28, 0.95
74, -694.87, 142358.13, -46047.21, -42380.79, -24642.82, 22876.03, -8811.44, 19419.40, 0.00, 0.00, 0.00
75, -5492.14, 177936.59, -48501.25, -49883.53, -40989.12, 20297.60, -7039.50, 14177.44, 0.00, 0.00, 0.00
76, -8152.19, 187500.00, -50111.04, -56922.74, -46176.71, 20928.47, -5793.97, 12242.27, 0.00, 0.00, 0.00
77, -3226.21, 158737.84, -47640.60, -49759.99, -28206.13, 23814.84, -8198.15, 17650.43, 0.00, 0.00, 0.00
78, -324.35, 138792.45, -45834.84, -42232.32, -22778.15, 23369.33, -8886.63, 19972.38, -0.29, 0.28, 0.95
79, -4499.85, 170211.80, -47938.16, -47965.59, -37935.63, 20622.32, -7445.72, 15183.27, 0.00, 0.00, 0.00
80, -8254.39, 187500.00, -50108.16, -56570.07, -47305.66, 20511.95, -5704.90, 11966.25, 0.00, 0.00, 0.00
81, -4395.45, 166596.47, -48326.64, -51823.88, -31761.31, 23396.04, -7812.20, 16472.30, 0.00, 0.00, 0.00
82, -264.18, 138577.38, -45945.57, -42706.16, -21785.66, 23747.56, -9062.29, 20168.25, 0.00, 0.00, 0.00
83, -3525.97, 163847.78, -47482.52, -46254.83, -34797.46, 21040.75, -7897.56, 16203.07, -0.29, 0.27, 0.94
84, -8071.64, 187500.00, -49989.12, -55723.57, -47445.96, 20233.89, -5792.83, 12005.03, 0.00, 0.00, 0.00
85, -5542.25, 174499.53, -48900.72, -53685.51, -35510.24, 22894.87, -7289.26, 15307.79, 0.00, 0.00, 0.00
86, -455.98, 139485.08, -46066.86, -43592.74, -21549.52, 24025.98, -9035.56, 20128.42, 0.00, 0.00, 0.00
87, -2579.03, 156976.44, -46981.42, -44702.73, -31604.81, 21528.35, -8219.47, 17244.21, 0.00, 0.00, 0.00
88, -7610.12, 187500.00, -49698.97, -54413.78, -46602.76, 20070.99, -6025.58, 12323.50, 0.00, 0.00, 0.00
89, -6571.86, 181751.45, -49405.96, -55199.02, -39174.05, 22346.20, -6744.62, 14222.75, -0.29, 0.28, 0.94
90, -928.83, 142750.11, -46347.50, -44915.83, -22239.61, 24176.74, -8927.55, 19793.61, 0.00, 0.00, 0.00
91, -1723.34, 150509.63, -46500.28, -43454.70, -28579.48, 22062.38, -8452.78, 18229.68, 0.00, 0.00, 0.00
92, -6914.22, 187049.11, -49231.97, -52748.93, -44880.31, 20065.34, -6323.26, 12917.16, 0.00, 0.00, 0.00
93, -7400.82, 187307.61, -49765.46, -56241.55, -42415.72, 21788.66, -6231.13, 13299.42, 0.00, 0.00, 0.00
94, -1686.57, 147816.64, -46812.46, -46631.14, -23909.04, 24159.06, -8756.12, 19140.04, -0.29, 0.28, 0.94
95, -1042.91, 145379.56, -46193.28, -42668.07, -25957.48, 22586.64, -8708.57, 19042.99, 0.00, 0.00, 0.00
96, -6059.83, 181658.77, -48745.15, -50912.94, -42510.13, 20202.73, -6729.04, 13710.49, 0.00, 0.00, 0.00
97, -7954.81, 187500.00, -49937.30, -56730.20, -44942.38, 21271.62, -5801.04, 12632.22, 0.00, 0.00, 0.00
98, -2614.66, 154317.17, -47254.74, -48494.61, -26338.42, 24008.75, -8350.32, 18310.97, 0.00, 0.00, 0.00
99, -534.70, 141395.91, -45931.18, -42241.15, -23746.45, 23100.44, -8815.71, 19725.50, -0.29, 0.28, 0.95
100, -5098.59, 175104.61, -48225.27, -48988.56, -39653.96, 20458.80, -7141.67, 14666.12, 0.00, 0.00, 0.00
101, -8251.71, 187500.00, -50102.75, -56721.95, -46673.64, 20805.72, -5621.42, 12193.93, 0.00, 0.00, 0.00
102, -3744.43, 162004.56, -47907.32, -50575.76, -29583.90, 23671.48, -7986.30, 17222.15, 0.00, 0.00, 0.00
103, -307.20, 138890.56, -45880.22, -42382.64, -22261.17, 23528.09, -8968.44, 20103.83, 0.00, 0.00, 0.00
104, -4111.63, 168074.52, -47697.68, -47165.44, -36558.58, 20811.51, -7575.70, 15671.90, -0.29, 0.28, 0.95
105, -8240.82, 187500.00, -50038.71, -56160.14, -47396.38, 20424.93, -5622.18, 12026.53, 0.00, 0.00, 0.00
106, -4918.57, 170169.55, -48542.82, -52574.96, -33265.86, 23213.40, -7524.98, 16035.43, 0.00, 0.00, 0.00
107, -344.71, 138990.39, -45958.29, -42999.82, -21541.07, 23881.43, -9022.33, 20224.44, 0.00, 0.00, 0.00
108, -3153.16, 161285.67, -47241.73, -45531.06, -33399.59, 21248.69, -7994.30, 16690.03, 0.00, 0.00, 0.00
109, -7950.31, 187500.00, -49864.32, -55145.57, -47143.23, 20169.07, -5823.81, 12148.98, -0.29, 0.28, 0.96
110, -6035.64, 177796.25, -49111.90, -54322.94, -37039.07, 22679.00, -7012.14, 14872.78, 0.00, 0.00, 0.00
111, -657.50, 140801.19, -46149.62, -44072.63, -21688.86, 24114.38, -8966.31, 20059.66, 0.00, 0.00, 0.00
112, -2212.00, 153862.77, -46667.80, -44057.52, -30207.15, 21778.31, -8220.14, 17750.35, 0.00, 0.00, 0.00
113, -7344.83, 187500.00, -49399.63, -53610.90, -45841.79, 20093.79, -6002.20, 12642.68, 0.00, 0.00, 0.00
114, -6952.44, 183904.09, -49459.74, -55573.95, -40484.59, 22140.36, -6386.81, 13903.92, 0.00, 0.00, 0.00
115, -1228.18, 144468.63, -46463.55, -45514.21, -22747.79, 24211.81, -8766.87, 19633.41, -0.29, 0.28, 0.95
116, -1429.91, 147819.66, -46316.86, -42999.52, -27351.98, 22307.20, -8491.74, 18670.50, 0.00, 0.00, 0.00
117, -6602.88, 184525.95, -49037.69, -51936.11, -43905.06, 20119.56, -6455.65, 13280.04, 0.00, 0.00, 0.00
118, -7705.12, 187500.00, -49839.38, -56452.05, -43521.55, 21583.47, -5989.86, 13039.18, 0.00, 0.00, 0.00
119, -2067.11, 150081.25, -46898.52, -47311.73, -24743.38, 24147.04, -8493.13, 18902.89, 0.00, 0.00, 0.00
120, -795.07, 142798.08, -45942.07, -42306.35, -24823.80, 22853.63, -8620.20, 19471.19, -0.29, 0.28, 0.95
121, -5667.53, 178508.80, -48446.40, -49991.46, -41245.70, 20329.89, -6800.88, 14193.76, 0.00, 0.00, 0.00
122, -8136.39, 187500.00, -49972.26, -56698.59, -45704.33, 21088.83, -5632.46, 12483.65, 0.00, 0.00, 0.00
123, -3098.60, 157565.05, -47480.63, -49304.95, -27575.99, 23908.72, -8140.73, 17940.83, 0.00, 0.00, 0.00
124, -413.13, 139672.06, -45810.05, -42152.95, -22940.35, 23323.87, -8796.91, 20009.62, 0.00, 0.00, 0.00
125, -4696.26, 172101.11, -47948.98, -48117.65, -38284.04, 20627.96, -7256.99, 15164.76, -0.29, 0.28, 0.95
126, -8300.92, 187500.00, -50050.98, -56458.87, -47016.76, 20663.45, -5535.74, 12162.54, 0.00, 0.00, 0.00
127, -4266.21, 165816.77, -48152.94, -51373.63, -31046.84, 23521.43, -7744.72, 16796.31, 0.00, 0.00, 0.00
128, -308.81, 139160.59, -45857.39, -42529.67, -21789.02, 23719.13, -8944.85, 20267.18, 0.00, 0.00, 0.00
129, -3727.73, 165649.36, -47490.10, -46390.39, -35167.05, 21017.79, -7719.22, 16171.60, 0.00, 0.00, 0.00
130, -8162.19, 187500.00, -49937.84, -55683.09, -47308.79, 20359.82, -5590.33, 12154.27, -0.29, 0.27, 0.94
131, -5416.86, 173977.13, -48724.16, -53247.08, -34763.49, 23041.23, -7206.11, 15642.09, 0.00, 0.00, 0.00
